$
$    Diagnostic data sets for DIIID SOLFLOW Experiment shot 131245
$    Fiduciary grid and data is for shot 131245 at 2800ms - Grid: sonnet_131245_2800
$
$    Summary of data blocks in file:  24
$
$    INDEX  TITLE
$
$      1    UPPER FS - DALPHA - vs ANGLE - photons/m2/s/sr - 2500 to 3000ms (phd_upper_da_131245.divexpt)
$      2    UPPER FS - DBETA  - vs ANGLE - photons/m2/s/sr - 2500 to 3000ms (phd_upper_db_131245.divexpt)
$      3    UPPER FS - DBETA  - vs ANGLE - photons/m2/s/sr - 2500 to 3000ms (phd_upper_db_131245.divexpt - point 2 - channel FSUP00DB removed)
$      4    UPPER FS - CIII   - vs ANGLE - photons/m2/s/sr - 2500 to 3000ms (phd_upper_c3_131245.divexpt)
$     
$      5    DIVERTOR THOMSON - PSIN,Ne, Te  - 2500 to 3000ms (divts_divimp_131245_psin.dat)
$      6    DIVERTOR THOMSON - R,Z, Ne, Te  - 2500 to 3000ms (divts_divimp_131245_rz.dat)
$
$      7    MAIN THOMSON     - PSIN,Ne, Te  - 2500 to 3000ms (upts_divimp_131245_psin.dat)
$      8    MAIN THOMSON     - R,Z, Ne, Te  - 2500 to 3000ms (upts_divimp_131245_rz.dat)
$ 
$      9    MID RCP - 2.5s - R,Z, Ne, Te	
$     10    XPT RCP - 2.5s - R,Z, Ne, Te
$     11    MID RCP - 4.0s - R,Z, Ne, Te	
$     12    XPT RCP - 4.0s - R,Z, Ne, Te
$
$ -----------------------------------------------------------------------------
$
$     Description of file format:
$
$     Each block of data is preceded by a header with specific
$     fields that may be optional.
$
$     The following are file headers
$
$     FILETITLE:  Describes file contents
$     FILECOUNT:  Lists number of datasets in file
$
$     The following are data set headers
$
$     INDEX: Number of data set in file - used for external selection
$     TITLE: Descriptive title for dataset
$     DATE:  Relevant date for determining validity of data
$     AXIS:  X-Axis type code ->  1=THETA  2=R 3=DIST 4=R,Z 5=CHAN
$     COUNT: Index numbers isolating the section of the dataset that
$            is relevant.
$     OFFSET:This input specifies an arbitrary value that will be
$            added to the data as an offset. If a value of -1.0 is
$            specified then the data extractor finds the minimum
$            value in the data set and subtracts this from all
$            data elements - this gives a way of accounting zero offsets
$            in the data.
$     CUTOFF:This quantity specifies a cutoff value - if the experimental
$            data is larger than this cutoff value - the data will be
$            set to zero. This is required to account for "glitches"
$            in the experimental data.
$     NCOLS: This input specifies the number of columns of experimental
$            data in the table - if it is not specified a value of
$            one (1) is assumed.
$
$     Only the INDEX field is ABSOLUTELY required. The others are
$     highly recommended. If the AXIS field is left off the AXIS
$     interpretation defaults to THETA in degrees.
$
$     NOTE: ALL Data lines must start with a space
$
$
FILETITLE: DIIID Data from SOL FLOW experiments (131245)
FILECOUNT: 12
$
INDEX:  1
TITLE: FS UPPER Dalpha 131245  (2500 to 3000ms)
DATE: Mon Oct 27 17:00:17 2008
AXIS: 1
SCALEF:  1.0
UNITS: Angle (degrees)   Dalpha (ph/m2/s/sr)  
COUNT:       1   8
NCOLS:       1
      1       99.908         4.0364e+17   
      2      102.722         1.6274e+18   
      3      104.801         4.5196e+18   
      4      107.356         7.0519e+17   
      5      110.119         1.6112e+18   
      6      112.797         4.9053e+18   
      7      115.132         1.5264e+18   
      8      117.504         9.1408e+17   
INDEX:  2
TITLE: FS UPPER Dbeta 131245  (2500 to 3000ms)
DATE: Mon Oct 27 17:00:17 2008
AXIS: 1
SCALEF:  1.0
UNITS: Angle (degrees)   Dalpha (ph/m2/s/sr)  NOTE: point 2 appears to have an error in data
COUNT:       1   3
NCOLS:       1  
      1      104.801       4.4690e+17   
      2      110.119       2.4527e+16   
      3      112.797       8.0055e+17   
INDEX:  3
TITLE: FS UPPER Dbeta 131245  (2500 to 3000ms)
DATE: Mon Oct 27 17:00:17 2008
AXIS: 1
SCALEF:  1.0
UNITS: Angle (degrees)   Dalpha (ph/m2/s/sr)  NOTE: point 2 appears to have an error in data?
COUNT:       1  2
NCOLS:       1
      1      104.801       4.4690e+17   
      2      112.797       8.0055e+17   
INDEX:  4
TITLE: FS UPPER CIII-465 131245  (2500 to 3000ms)
DATE: Mon Oct 27 17:00:17 2008
AXIS: 1
SCALEF:  1.0
UNITS: Angle (degrees)   Dalpha (ph/m2/s/sr) 
COUNT:       1   8
NCOLS:       1
      1       99.908         2.4193e+16   
      2      102.722         7.4583e+16   
      3      104.801         2.5431e+17   
      4      107.356         5.4943e+16   
      5      110.119         2.1153e+17   
      6      112.797         1.4087e+17   
      7      115.132         1.6327e+17   
      8      117.504         8.4071e+16   
INDEX: 5
TITLE: divts_divimp_131245_psin.dat
DATE: Sat Nov  8 07:34:12 2008
AXIS: 6
SCALEF:  1.0
UNITS: Psin   Ne(m-3) Te(eV)
COUNT:    1    93
NCOLS:       2
    1	  1.0374	  4.4975E+18	    164.1009
    2	  0.9921	  7.5654E+18	    204.7748
    3	  1.0362	  6.4634E+18	     89.7291
    4	  0.9919	  2.9710E+19	      0.6140
    5	  1.0522	  4.7351E+18	     26.9354
    6	  1.0129	  7.3809E+18	     38.0733
    7	  0.9934	  6.7961E+18	    147.5125
    8	  0.9920	  1.0080E+19	    141.5506
    9	  1.0687	  6.0669E+18	     26.4025
   10	  1.0148	  7.0818E+18	    114.4540
   11	  0.9940	  6.3336E+18	    145.5389
   12	  1.0129	  6.5020E+18	     35.6329
   13	  1.0352	  5.8575E+18	     25.9199
   14	  1.0124	  6.8112E+18	     25.6507
   15	  0.9926	  6.9092E+18	    224.5916
   16	  1.0105	  7.1854E+18	    154.8104
   17	  1.0336	  1.7082E+19	      0.6912
   18	  0.9934	  1.0028E+19	    155.9141
   19	  1.0125	  5.6877E+18	    172.4973
   20	  0.9927	  1.1666E+19	     28.2343
   21	  1.0463	  4.5380E+18	     34.6080
   22	  0.9918	  1.3177E+19	    221.6471
   23	  0.9925	  9.6704E+18	    122.3443
   24	  1.0107	  5.7590E+18	     22.0106
   25	  0.9916	  1.3598E+19	     18.9097
   26	  1.0491	  5.5763E+18	     23.1402
   27	  1.0329	  3.7720E+18	     50.9839
   28	  1.0901	  1.3245E+19	     27.0498
   29	  1.0744	  6.0768E+18	     29.7416
   30	  1.0305	  5.1931E+18	     43.4166
   31	  0.9921	  9.5845E+18	    141.6148
   32	  1.0872	  2.0462E+19	     21.6541
   33	  1.0621	  2.4819E+19	      0.5000
   34	  1.0478	  6.9270E+18	     30.0088
   35	  1.0458	  4.4416E+18	    201.2797
   36	  1.0114	  8.4603E+18	     17.1310
   37	  1.0124	  8.5947E+18	     30.7481
   38	  1.0491	  6.5250E+18	     21.4676
   39	  0.9932	  1.9137E+19	     33.0275
   40	  1.0322	  4.9845E+18	    172.6264
   41	  1.0126	  8.8943E+18	     49.0153
   42	  0.9933	  8.1874E+18	    216.9116
   43	  1.0751	  4.9355E+18	     28.4079
   44	  1.0473	  5.1654E+18	     19.5094
   45	  1.0312	  6.3899E+18	     34.1769
   46	  0.9926	  3.2833E+19	      0.9152
   47	  1.0753	  4.6829E+18	     15.3939
   48	  0.9918	  5.6356E+18	    241.3820
   49	  1.0310	  4.8293E+18	     38.8415
   50	  0.9926	  1.5997E+19	     15.3991
   51	  1.0297	  5.4203E+18	    165.2305
   52	  1.0108	  4.1436E+18	    201.1766
   53	  0.9926	  6.5469E+18	    190.9696
   54	  1.0918	  9.4096E+18	    156.2971
   55	  1.0121	  8.3790E+18	     21.2133
   56	  1.0698	  5.0214E+18	     15.0299
   57	  1.0280	  6.4198E+18	    259.7314
   58	  1.0096	  6.3942E+18	    126.6665
   59	  1.0295	  3.8863E+19	      0.5375
   60	  1.0102	  1.0316E+19	     30.4282
   61	  1.0853	  8.7159E+19	      0.5084
   62	  0.9919	  8.3493E+18	    196.1562
   63	  1.0308	  2.4612E+19	      0.7170
   64	  0.9933	  1.5366E+19	     24.7814
   65	  1.0467	  3.5362E+18	    116.3430
   66	  1.0307	  4.7559E+18	     40.9805
   67	  1.0115	  5.3584E+18	     27.4010
   68	  1.0306	  6.1882E+18	    136.9693
   69	  0.9927	  1.7233E+19	     18.3280
   70	  1.0911	  1.3983E+19	     43.1258
   71	  1.0754	  5.7009E+18	     13.9936
   72	  1.0119	  6.0380E+18	    288.1133
   73	  1.0120	  8.4305E+18	     78.0047
   74	  0.9928	  1.4961E+19	     12.9410
   75	  0.9933	  3.3824E+19	      1.2423
   76	  1.0693	  4.8856E+18	     17.9934
   77	  1.0275	  3.9389E+18	    153.1771
   78	  0.9908	  7.3348E+18	    221.9867
   79	  1.0115	  9.1345E+18	     39.4060
   80	  0.9931	  1.1559E+19	     42.5130
   81	  1.0269	  5.5122E+18	     74.3458
   82	  1.0599	  5.3506E+18	     22.8057
   83	  1.0460	  5.0410E+18	     40.5102
   84	  0.9924	  1.3941E+19	     61.4725
   85	  0.9925	  8.2172E+18	    248.4262
   86	  1.0278	  4.0189E+18	    318.0052
   87	  1.0437	  2.8520E+18	    140.8734
   88	  0.9909	  5.6853E+18	    147.7458
   89	  1.0730	  4.2524E+18	     24.5525
   90	  1.0738	  6.1443E+18	     20.7546
   91	  1.0114	  8.6649E+18	     39.3677
   92	  1.0286	  3.4941E+18	     39.8240
   93	  0.9911	  9.7409E+18	     36.0331
INDEX: 6
TITLE: divts_divimp_131245_rz.dat
DATE: Sat Nov  8 07:34:12 2008
AXIS: 4
SCALEF:  1.0
UNITS: R(m) Z(m)  Ne(m-3)  Te(eV)
COUNT:       1   93
NCOLS:       3
    1	  1.4900	 -1.0940	  4.4975E+18	    164.1009
    2	  1.4900	 -1.0220	  7.5654E+18	    204.7748
    3	  1.4900	 -1.0940	  6.4634E+18	     89.7291
    4	  1.4900	 -1.0220	  2.9710E+19	      0.6140
    5	  1.4900	 -1.1290	  4.7351E+18	     26.9354
    6	  1.4900	 -1.0560	  7.3809E+18	     38.0733
    7	  1.4900	 -1.0220	  6.7961E+18	    147.5125
    8	  1.4900	 -1.0220	  1.0080E+19	    141.5506
    9	  1.4900	 -1.1630	  6.0669E+18	     26.4025
   10	  1.4900	 -1.0560	  7.0818E+18	    114.4540
   11	  1.4900	 -1.0220	  6.3336E+18	    145.5389
   12	  1.4900	 -1.0560	  6.5020E+18	     35.6329
   13	  1.4900	 -1.0940	  5.8575E+18	     25.9199
   14	  1.4900	 -1.0560	  6.8112E+18	     25.6507
   15	  1.4900	 -1.0220	  6.9092E+18	    224.5916
   16	  1.4900	 -1.0560	  7.1854E+18	    154.8104
   17	  1.4900	 -1.0940	  1.7082E+19	      0.6912
   18	  1.4900	 -1.0220	  1.0028E+19	    155.9141
   19	  1.4900	 -1.0560	  5.6877E+18	    172.4973
   20	  1.4900	 -1.0220	  1.1666E+19	     28.2343
   21	  1.4900	 -1.1290	  4.5380E+18	     34.6080
   22	  1.4900	 -1.0220	  1.3177E+19	    221.6471
   23	  1.4900	 -1.0220	  9.6704E+18	    122.3443
   24	  1.4900	 -1.0560	  5.7590E+18	     22.0106
   25	  1.4900	 -1.0220	  1.3598E+19	     18.9097
   26	  1.4900	 -1.1290	  5.5763E+18	     23.1402
   27	  1.4900	 -1.0940	  3.7720E+18	     50.9839
   28	  1.4900	 -1.2460	  1.3245E+19	     27.0498
   29	  1.4900	 -1.1990	  6.0768E+18	     29.7416
   30	  1.4900	 -1.0940	  5.1931E+18	     43.4166
   31	  1.4900	 -1.0220	  9.5845E+18	    141.6148
   32	  1.4900	 -1.2320	  2.0462E+19	     21.6541
   33	  1.4900	 -1.1630	  2.4819E+19	      0.5000
   34	  1.4900	 -1.1290	  6.9270E+18	     30.0088
   35	  1.4900	 -1.1290	  4.4416E+18	    201.2797
   36	  1.4900	 -1.0560	  8.4603E+18	     17.1310
   37	  1.4900	 -1.0560	  8.5947E+18	     30.7481
   38	  1.4900	 -1.1290	  6.5250E+18	     21.4676
   39	  1.4900	 -1.0220	  1.9137E+19	     33.0275
   40	  1.4900	 -1.0940	  4.9845E+18	    172.6264
   41	  1.4900	 -1.0560	  8.8943E+18	     49.0153
   42	  1.4900	 -1.0220	  8.1874E+18	    216.9116
   43	  1.4900	 -1.1990	  4.9355E+18	     28.4079
   44	  1.4900	 -1.1290	  5.1654E+18	     19.5094
   45	  1.4900	 -1.0940	  6.3899E+18	     34.1769
   46	  1.4900	 -1.0220	  3.2833E+19	      0.9152
   47	  1.4900	 -1.1990	  4.6829E+18	     15.3939
   48	  1.4900	 -1.0220	  5.6356E+18	    241.3820
   49	  1.4900	 -1.0940	  4.8293E+18	     38.8415
   50	  1.4900	 -1.0220	  1.5997E+19	     15.3991
   51	  1.4900	 -1.0940	  5.4203E+18	    165.2305
   52	  1.4900	 -1.0560	  4.1436E+18	    201.1766
   53	  1.4900	 -1.0220	  6.5469E+18	    190.9696
   54	  1.4900	 -1.2460	  9.4096E+18	    156.2971
   55	  1.4900	 -1.0560	  8.3790E+18	     21.2133
   56	  1.4900	 -1.1990	  5.0214E+18	     15.0299
   57	  1.4900	 -1.0940	  6.4198E+18	    259.7314
   58	  1.4900	 -1.0560	  6.3942E+18	    126.6665
   59	  1.4900	 -1.0940	  3.8863E+19	      0.5375
   60	  1.4900	 -1.0560	  1.0316E+19	     30.4282
   61	  1.4900	 -1.2320	  8.7159E+19	      0.5084
   62	  1.4900	 -1.0220	  8.3493E+18	    196.1562
   63	  1.4900	 -1.0940	  2.4612E+19	      0.7170
   64	  1.4900	 -1.0220	  1.5366E+19	     24.7814
   65	  1.4900	 -1.1290	  3.5362E+18	    116.3430
   66	  1.4900	 -1.0940	  4.7559E+18	     40.9805
   67	  1.4900	 -1.0560	  5.3584E+18	     27.4010
   68	  1.4900	 -1.0940	  6.1882E+18	    136.9693
   69	  1.4900	 -1.0220	  1.7233E+19	     18.3280
   70	  1.4900	 -1.2460	  1.3983E+19	     43.1258
   71	  1.4900	 -1.1990	  5.7009E+18	     13.9936
   72	  1.4900	 -1.0560	  6.0380E+18	    288.1133
   73	  1.4900	 -1.0560	  8.4305E+18	     78.0047
   74	  1.4900	 -1.0220	  1.4961E+19	     12.9410
   75	  1.4900	 -1.0220	  3.3824E+19	      1.2423
   76	  1.4900	 -1.1990	  4.8856E+18	     17.9934
   77	  1.4900	 -1.0940	  3.9389E+18	    153.1771
   78	  1.4900	 -1.0220	  7.3348E+18	    221.9867
   79	  1.4900	 -1.0560	  9.1345E+18	     39.4060
   80	  1.4900	 -1.0220	  1.1559E+19	     42.5130
   81	  1.4900	 -1.0940	  5.5122E+18	     74.3458
   82	  1.4900	 -1.1630	  5.3506E+18	     22.8057
   83	  1.4900	 -1.1290	  5.0410E+18	     40.5102
   84	  1.4900	 -1.0220	  1.3941E+19	     61.4725
   85	  1.4900	 -1.0220	  8.2172E+18	    248.4262
   86	  1.4900	 -1.0940	  4.0189E+18	    318.0052
   87	  1.4900	 -1.1290	  2.8520E+18	    140.8734
   88	  1.4900	 -1.0220	  5.6853E+18	    147.7458
   89	  1.4900	 -1.1990	  4.2524E+18	     24.5525
   90	  1.4900	 -1.1990	  6.1443E+18	     20.7546
   91	  1.4900	 -1.0560	  8.6649E+18	     39.3677
   92	  1.4900	 -1.0940	  3.4941E+18	     39.8240
   93	  1.4900	 -1.0220	  9.7409E+18	     36.0331
INDEX: 7
TITLE: upts_divimp_131245_psin.dat
DATE: Sat Nov  8 07:28:25 2008
AXIS: 6
SCALEF:  1.0
UNITS: Psin   Ne(m-3) Te(eV)
COUNT:       1  723
NCOLS:       2
    1	  1.1353	  1.8308E+18	     11.0310
    2	  1.0885	  3.7744E+18	     10.0757
    3	  1.0493	  2.4988E+18	     16.8379
    4	  1.0354	  5.8803E+18	     22.2417
    5	  1.0053	  6.1726E+18	      8.1261
    6	  0.9558	  1.3417E+19	    117.7681
    7	  0.9385	  1.3207E+19	    151.5687
    8	  0.9209	  1.5692E+19	    142.8208
    9	  0.9004	  1.4387E+19	    219.8683
   10	  0.8567	  1.7071E+19	    229.7425
   11	  0.7848	  1.7580E+19	    300.3773
   12	  0.6556	  1.9407E+19	    541.8500
   13	  0.7041	  1.8685E+19	    345.2454
   14	  0.5729	  2.0019E+19	    791.3335
   15	  0.4975	  2.2486E+19	    727.3543
   16	  0.3528	  2.2907E+19	   1226.5222
   17	  0.2266	  2.9907E+19	   1536.8317
   18	  0.1786	  3.2257E+19	   1725.1040
   19	  1.1660	  2.2059E+18	      7.1759
   20	  1.0485	  6.3666E+18	     12.6946
   21	  1.0346	  7.8027E+18	     26.6875
   22	  1.0205	  2.4791E+18	     76.7607
   23	  1.0049	  7.5090E+18	     21.2764
   24	  0.9900	  1.0056E+19	     28.5336
   25	  0.9726	  3.2593E+18	    506.0159
   26	  0.9559	  1.2287E+19	    120.8270
   27	  0.9389	  1.3748E+19	    151.3101
   28	  0.9215	  1.4211E+19	    155.9716
   29	  0.9013	  1.5221E+19	    198.3453
   30	  0.8583	  1.7342E+19	    201.2020
   31	  0.7874	  1.6029E+19	    438.0427
   32	  0.6596	  1.8509E+19	    462.3807
   33	  0.7076	  1.8915E+19	    497.1860
   34	  0.5776	  1.9308E+19	    698.3134
   35	  0.5024	  2.1409E+19	    933.0344
   36	  0.3575	  2.2032E+19	   1192.0549
   37	  0.2306	  2.9696E+19	   1488.8475
   38	  0.1826	  3.1194E+19	   1587.7610
   39	  1.0309	  4.0672E+18	     11.6530
   40	  1.0163	  2.7650E+18	     67.3917
   41	  1.0002	  8.4276E+18	     20.3018
   42	  0.9849	  7.2925E+18	     38.2595
   43	  0.9495	  1.3310E+19	    128.2878
   44	  0.9319	  1.5076E+19	    162.6493
   45	  0.9139	  1.4824E+19	    158.4553
   46	  0.8930	  1.6181E+19	    165.7537
   47	  0.8485	  1.7141E+19	    244.8764
   48	  0.7753	  1.7198E+19	    464.5428
   49	  0.6447	  1.9096E+19	    529.2687
   50	  0.6936	  1.7944E+19	    382.7751
   51	  0.5617	  1.9735E+19	    727.1047
   52	  0.4865	  2.0363E+19	    739.1948
   53	  0.3434	  2.4357E+19	   1239.0304
   54	  0.2203	  2.8374E+19	   1469.1886
   55	  0.1744	  2.9999E+19	   1588.2822
   56	  1.1558	  3.8699E+18	      0.7031
   57	  1.1450	  1.7043E+18	     14.4596
   58	  1.0973	  1.7429E+18	     14.4486
   59	  1.0452	  6.5512E+18	      8.7773
   60	  1.0309	  6.0226E+18	      9.3767
   61	  1.0002	  8.7585E+18	     23.9721
   62	  0.9849	  9.3354E+18	     28.4279
   63	  0.9668	  3.6846E+18	    233.9191
   64	  0.9495	  1.2036E+19	     90.4006
   65	  0.9319	  1.4641E+19	    160.4029
   66	  0.9139	  1.5396E+19	    223.3140
   67	  0.8930	  1.4986E+19	    250.1005
   68	  0.8485	  1.7030E+19	    260.5086
   69	  0.7753	  1.8158E+19	    272.7691
   70	  0.6447	  1.8396E+19	    489.5439
   71	  0.6936	  1.8596E+19	    344.2110
   72	  0.5617	  1.4726E+19	   1757.6653
   73	  0.4865	  2.2079E+19	    874.3782
   74	  0.3434	  2.3684E+19	   1481.3280
   75	  0.2203	  2.5836E+19	   1507.1128
   76	  0.1744	  3.1182E+19	   1761.3303
   77	  1.1227	  2.7900E+18	     11.0793
   78	  1.0452	  5.4722E+18	     13.9737
   79	  1.0309	  7.0443E+18	     13.7663
   80	  1.0002	  7.7209E+18	     12.3753
   81	  0.9849	  8.1555E+18	     25.8560
   82	  0.9495	  1.1938E+19	    132.4002
   83	  0.9319	  1.4385E+19	    182.4334
   84	  0.9139	  1.4196E+19	    167.8171
   85	  0.8930	  1.4320E+19	    156.5493
   86	  0.8485	  1.6459E+19	    272.0251
   87	  0.7753	  1.8548E+19	    329.6460
   88	  0.6447	  2.0294E+19	    572.2774
   89	  0.6936	  1.8492E+19	    467.5196
   90	  0.5617	  2.0231E+19	    653.3433
   91	  0.4865	  2.0946E+19	    828.8196
   92	  0.3434	  2.4180E+19	   1262.1534
   93	  0.2203	  3.2013E+19	   1265.7397
   94	  0.1744	  3.3014E+19	   1534.3062
   95	  1.1573	  2.0838E+18	      7.0679
   96	  1.0530	  4.1586E+18	      9.3231
   97	  1.0395	  4.9977E+18	     21.7418
   98	  1.0105	  5.6466E+18	     16.3646
   99	  0.9961	  1.1721E+19	     32.1341
  100	  0.9629	  1.1919E+19	     99.2652
  101	  0.9464	  1.4217E+19	    112.7889
  102	  0.9296	  1.4560E+19	    172.6288
  103	  0.9100	  1.5218E+19	    154.7013
  104	  0.8682	  1.6570E+19	    241.7560
  105	  0.7994	  1.7934E+19	    260.8732
  106	  0.6746	  1.9667E+19	    585.0013
  107	  0.7217	  1.7421E+19	    502.5678
  108	  0.5939	  2.0591E+19	    571.4315
  109	  0.5194	  2.1774E+19	    771.7316
  110	  0.3743	  2.3162E+19	   1195.7574
  111	  0.2447	  3.1024E+19	   1349.6078
  112	  0.1941	  3.2829E+19	   1737.9749
  113	  1.1110	  1.8933E+18	     38.1369
  114	  1.0735	  2.4206E+18	     16.7312
  115	  1.0475	  5.0798E+18	      9.4903
  116	  1.0335	  6.6961E+18	     13.5182
  117	  1.0035	  5.2146E+18	     16.0688
  118	  0.9709	  3.2215E+19	      1.0372
  119	  0.9540	  9.4317E+18	    105.7852
  120	  0.9368	  1.3332E+19	    124.2283
  121	  0.9193	  1.2106E+19	    159.4754
  122	  0.8988	  1.2918E+19	    186.9334
  123	  0.8553	  1.6210E+19	    213.9608
  124	  0.7837	  1.6912E+19	    342.3593
  125	  0.6551	  1.9634E+19	    640.9447
  126	  0.7034	  1.7814E+19	    341.2530
  127	  0.5728	  2.2863E+19	    667.3586
  128	  0.4978	  2.0074E+19	    787.1425
  129	  0.3538	  2.2997E+19	   1289.7991
  130	  0.2286	  3.0230E+19	   1225.2344
  131	  0.1817	  3.0069E+19	   1518.4353
  132	  1.1451	  3.2671E+18	      0.5734
  133	  1.0475	  4.6987E+18	      8.0947
  134	  1.0335	  4.7675E+18	     19.0248
  135	  1.0035	  6.4461E+18	     21.3386
  136	  0.9885	  8.7068E+18	     22.4918
  137	  0.9709	  2.3409E+18	    870.5764
  138	  0.9540	  1.3846E+19	     95.1053
  139	  0.9368	  1.3471E+19	    117.1019
  140	  0.9193	  1.4378E+19	    144.6853
  141	  0.8988	  1.5392E+19	    204.8014
  142	  0.8553	  1.5899E+19	    199.9002
  143	  0.7837	  1.6339E+19	    409.8596
  144	  0.6551	  1.8547E+19	    459.0916
  145	  0.7034	  1.6051E+19	    526.1014
  146	  0.5728	  1.9683E+19	    726.9190
  147	  0.4978	  2.1411E+19	    751.7905
  148	  0.3538	  2.4086E+19	   1181.8696
  149	  0.2286	  2.6470E+19	   1243.8059
  150	  0.1817	  3.1622E+19	   1624.8085
  151	  1.0866	  2.5830E+18	     11.5548
  152	  1.0735	  3.1331E+18	     21.3640
