$
$    Diagnostic data sets for DIIID shot 102465 at 1800 ms, grid sonnet.psb01
$
$    Summary of data blocks in file:  1
$
$    INDEX  TITLE
$
$      1    DIVERTOR THOMSON MAPPED TO 1800 ms (remap_divts_102465.1800)
$              (1547-1997 ms)
$      2
$      3
$      4    INNER TARGET LANGMUIR PROBE DATA (date?)
$      5    OUTER TARGET LANGMUIR PROBE DATA (date?)
$      6    Core Thomson data at 1800 ms (ws_thomson_102465_1800.dat)
$      7    Core Thomson data at 1500-2000 ms (ws_thomson_102465_1500.dat)
$      8    LOWER-LOOKING PHOTO DIODE AT 1800 ms (ws_phdlw_102465_1800.dat)
$
$     Description of file format:
$
$     Each block of data is preceded by a header with specific
$     fields that may be optional.
$
$     The following are file headers
$
$     FILETITLE:  Describes file contents
$     FILECOUNT:  Lists number of datasets in file
$
$     The following are data set headers
$
$     INDEX: Number of data set in file - used for external selection
$     TITLE: Descriptive title for dataset
$     DATE:  Relevant date for determining validity of data
$     AXIS:  X-Axis type code ->  1=THETA  2=R 3=DIST 4=R,Z 5=CHAN
$     COUNT: Index numbers isolating the section of the dataset that
$            is relevant.
$     OFFSET:This input specifies an arbitrary value that will be
$            added to the data as an offset. If a value of -1.0 is
$            specified then the data extractor finds the minimum
$            value in the data set and subtracts this from all
$            data elements - this gives a way of accounting zero offsets
$            in the data.
$     CUTOFF:This quantity specifies a cutoff value - if the experimental
$            data is larger than this cutoff value - the data will be
$            set to zero. This is required to account for "glitches"
$            in the experimental data.
$     NCOLS: This input specifies the number of columns of experimental
$            data in the table - if it is not specified a value of
$            one (1) is assumed.
$
$     Only the INDEX field is ABSOLUTELY required. The others are
$     highly recommended. If the AXIS field is left off the AXIS
$     interpretation defaults to THETA in degrees.
$
$
FILETITLE: DIIID 102465 experimental diagnostic data at 1800 ms
FILECOUNT: 7
$
INDEX:  1
TITLE:  DTS 1800 ms (mapped from 1547-1997 ms)
DATE:   April 18, 2000
AXIS:   4
SCALEF: 1.0
UNITS:  Ne (m-3)  Te (eV)
COUNT:  1  80
NCOLS:  3                                       Time
   1   1.5372 -1.3520   0.1814E+20    4.231	1547
   2   1.5364 -1.3351   0.0000E+20    0.000	
   3   1.5356 -1.3189   0.2903E+20    4.623	
   4   1.5346 -1.3015   0.1399E+20    9.474	
   5   1.5327 -1.2683   0.1350E+20    6.948	
   6   1.5306 -1.2365   0.0986E+20   22.180	
   7   1.5283 -1.2053   0.1208E+20   15.368	
   8   1.5255 -1.1737   0.0000E+20    0.000	
   9   1.5316 -1.3517   0.1508E+20    5.050	1597
  10   1.5307 -1.3345   0.0876E+20   20.224	
  11   1.5298 -1.3180   0.2599E+20    4.939	
  12   1.5288 -1.3003   0.1677E+20   14.440	
  13   1.5268 -1.2667   0.1191E+20   11.910	
  14   1.5248 -1.2345   0.1347E+20   16.952	
  15   1.5227 -1.2030   0.0699E+20   16.853	
  16   1.5205 -1.1711   0.0000E+20    0.000	
  17   1.5172 -1.3499   0.2641E+20    6.624	1647
  18   1.5149 -1.3307   0.0000E+20    0.000	
  19   1.5128 -1.3123   0.0000E+20    0.000	
  20   1.5109 -1.2926   0.1634E+20   15.022	
  21   1.5079 -1.2551   0.1072E+20   13.829	
  22   1.5058 -1.2193   0.1400E+20   11.496	
  23   1.5045 -1.1843   0.0000E+20    0.000	
  24   1.5048 -1.1493   0.0000E+20    0.000	
  25   1.4907 -1.3493   0.5331E+20    5.583	1697
  26   1.4897 -1.3297   0.2747E+20   19.475	
  27   1.4888 -1.3110   0.0000E+20    0.000	
  28   1.4882 -1.2914   0.2302E+20   15.626	
  29   1.4872 -1.2541   0.1198E+20   12.625	
  30   1.4867 -1.2189   0.1587E+20   16.211	
  31   1.4867 -1.1848   0.1270E+20   20.810	
  32   1.4875 -1.1507   0.0000E+20    0.000	
  33   1.4900 -1.3499	0.6199E+20    4.556	1747
  34   1.4896 -1.3309	0.2409E+20   17.901	
  35   1.4892 -1.3128	0.3808E+20   12.825	
  36   1.4889 -1.2936	0.2449E+20   16.618	
  37   1.4885 -1.2572	0.1554E+20   12.091	
  38   1.4881 -1.2229	0.1521E+20   15.641	
  39   1.4879 -1.1895	0.1249E+20   14.690	
  40   1.4879 -1.1561	0.0805E+20   29.699	
  41   1.4909 -1.3498	0.7566E+20    4.647	1797
  42   1.4906 -1.3307	0.0000E+20    0.000	
  43   1.4903 -1.3125	0.3141E+20   17.034	
  44   1.4901 -1.2933	0.2018E+20   17.422	
  45   1.4899 -1.2569	0.1275E+20   19.005	
  46   1.4897 -1.2225	0.0000E+20    0.000	
  47   1.4897 -1.1892	0.1221E+20   10.081	
  48   1.4898 -1.1558	0.0887E+20   28.546	
  49   1.4706 -1.3506	0.7486E+20    4.524	1847
  50   1.4737 -1.3326	0.0000E+20    0.000	
  51   1.4765 -1.3157	0.2834E+20   13.132	
  52   1.4791 -1.2980	0.0000E+20    0.000	
  53   1.4834 -1.2648	0.0000E+20    0.000	
  54   1.4866 -1.2340	0.1532E+20   12.297	
  55   1.4884 -1.2044	0.1140E+20   19.324	
  56   1.4889 -1.1750	0.0707E+20   30.198	
  57   1.4659 -1.3481	0.3528E+20    4.875	1897
  58   1.4652 -1.3275	0.4463E+20   19.709	
  59   1.4651 -1.3082	0.3967E+20   15.881	
  60   1.4651 -1.2882	0.2476E+20   20.720	
  61   1.4655 -1.2508	0.1754E+20   19.909	
  62   1.4661 -1.2158	0.1849E+20   11.531	
  63   1.4674 -1.1821	0.1273E+20   24.039	
  64   1.4690 -1.1485	0.0910E+20   33.356	
  65   1.4600 -1.3485	0.2722E+20    4.412	1947
  66   1.4599 -1.3283	0.2074E+20   16.696	
  67   1.4604 -1.3095	0.4323E+20    9.738	
  68   1.4610 -1.2899	0.2800E+20   20.954	
  69   1.4624 -1.2535	0.1410E+20   18.386	
  70   1.4637 -1.2196	0.1344E+20   19.483	
  71   1.4649 -1.1869	0.1267E+20   20.029	
  72   1.4661 -1.1542	0.0709E+20   33.353	
  73   1.4547 -1.3478	0.2492E+20    3.018	1997
  74   1.4543 -1.3270	0.0000E+20    0.000	
  75   1.4545 -1.3078	0.5456E+20    9.415	
  76   1.4549 -1.2880	0.3429E+20   20.184	
  77   1.4562 -1.2512	0.1731E+20   14.792	
  78   1.4575 -1.2169	0.1604E+20   21.069	
  79   1.4590 -1.1839	0.1258E+20   31.576	
  80   1.4609 -1.1509   0.0857E+20   39.235	
INDEX:  2
TITLE:  DTS 1800 ms (mapped from 1747, 1799 and 1847 ms)
DATE:   April 18, 2000
AXIS:   4
SCALEF: 1.0
UNITS:  Ne (m-3)  Te (eV)
COUNT:  1  24
NCOLS:  3                                       Time
   1   1.4900 -1.3499   0.6199E+20    4.556     1747
   2   1.4896 -1.3309   0.2409E+20   17.901         
   3   1.4892 -1.3128   0.3808E+20   12.825         
   4   1.4889 -1.2936   0.2449E+20   16.618         
   5   1.4885 -1.2572   0.1554E+20   12.091         
   6   1.4881 -1.2229   0.1521E+20   15.641         
   7   1.4879 -1.1895   0.1249E+20   14.690         
   8   1.4879 -1.1561   0.0805E+20   29.699         
   9   1.4909 -1.3498   0.7566E+20    4.647     1797
  10   1.4906 -1.3307   0.0000E+20    0.000         
  11   1.4903 -1.3125   0.3141E+20   17.034         
  12   1.4901 -1.2933   0.2018E+20   17.422         
  13   1.4899 -1.2569   0.1275E+20   19.005         
  14   1.4897 -1.2225   0.0000E+20    0.000         
  15   1.4897 -1.1892   0.1221E+20   10.081         
  16   1.4898 -1.1558   0.0887E+20   28.546         
  17   1.4706 -1.3506   0.7486E+20    4.524     1847
  18   1.4737 -1.3326   0.0000E+20    0.000	
  19   1.4765 -1.3157   0.2834E+20   13.132	
  20   1.4791 -1.2980   0.0000E+20    0.000	
  21   1.4834 -1.2648   0.0000E+20    0.000	
  22   1.4866 -1.2340   0.1532E+20   12.297	
  23   1.4884 -1.2044   0.1140E+20   19.324	
  24   1.4889 -1.1750   0.0707E+20   30.198	
INDEX:  3
TITLE:  DTS 1800 ms (mapped from 1547-1997, excluding 1747, 1799 and 1847 ms)
DATE:   April 18, 2000
AXIS:   4
SCALEF: 1.0
UNITS:  Ne (m-3)  Te (eV)
COUNT:  1  56
NCOLS:  3                                       Time
   1   1.5372 -1.3520   0.1814E+20    4.231	1547
   2   1.5364 -1.3351   0.0000E+20    0.000	
   3   1.5356 -1.3189   0.2903E+20    4.623	
   4   1.5346 -1.3015   0.1399E+20    9.474	
   5   1.5327 -1.2683   0.1350E+20    6.948	
   6   1.5306 -1.2365   0.0986E+20   22.180	
   7   1.5283 -1.2053   0.1208E+20   15.368	
   8   1.5255 -1.1737   0.0000E+20    0.000	
   9   1.5316 -1.3517   0.1508E+20    5.050	1597
  10   1.5307 -1.3345   0.0876E+20   20.224	
  11   1.5298 -1.3180   0.2599E+20    4.939	
  12   1.5288 -1.3003   0.1677E+20   14.440	
  13   1.5268 -1.2667   0.1191E+20   11.910	
  14   1.5248 -1.2345   0.1347E+20   16.952	
  15   1.5227 -1.2030   0.0699E+20   16.853	
  16   1.5205 -1.1711   0.0000E+20    0.000	
  17   1.5172 -1.3499   0.2641E+20    6.624	1647
  18   1.5149 -1.3307   0.0000E+20    0.000	
  19   1.5128 -1.3123   0.0000E+20    0.000	
  20   1.5109 -1.2926   0.1634E+20   15.022	
  21   1.5079 -1.2551   0.1072E+20   13.829	
  22   1.5058 -1.2193   0.1400E+20   11.496	
  23   1.5045 -1.1843   0.0000E+20    0.000	
  24   1.5048 -1.1493   0.0000E+20    0.000	
  25   1.4907 -1.3493   0.5331E+20    5.583	1697
  26   1.4897 -1.3297   0.2747E+20   19.475	
  27   1.4888 -1.3110   0.0000E+20    0.000	
  28   1.4882 -1.2914   0.2302E+20   15.626	
  29   1.4872 -1.2541   0.1198E+20   12.625	
  30   1.4867 -1.2189   0.1587E+20   16.211	
  31   1.4867 -1.1848   0.1270E+20   20.810	
  32   1.4875 -1.1507   0.0000E+20    0.000	
  33   1.4659 -1.3481   0.3528E+20    4.875     1897     
  34   1.4652 -1.3275   0.4463E+20   19.709         
  35   1.4651 -1.3082   0.3967E+20   15.881         
  36   1.4651 -1.2882   0.2476E+20   20.720         
  37   1.4655 -1.2508   0.1754E+20   19.909         
  38   1.4661 -1.2158   0.1849E+20   11.531         
  39   1.4674 -1.1821   0.1273E+20   24.039         
  40   1.4690 -1.1485   0.0910E+20   33.356         
  41   1.4600 -1.3485   0.2722E+20    4.412     1947
  42   1.4599 -1.3283   0.2074E+20   16.696         
  43   1.4604 -1.3095   0.4323E+20    9.738         
  44   1.4610 -1.2899   0.2800E+20   20.954         
  45   1.4624 -1.2535   0.1410E+20   18.386         
  46   1.4637 -1.2196   0.1344E+20   19.483         
  47   1.4649 -1.1869   0.1267E+20   20.029         
  48   1.4661 -1.1542   0.0709E+20   33.353         
  49   1.4547 -1.3478   0.2492E+20    3.018     1997
  50   1.4543 -1.3270   0.0000E+20    0.000     
  51   1.4545 -1.3078   0.5456E+20    9.415     
  52   1.4549 -1.2880   0.3429E+20   20.184     
  53   1.4562 -1.2512   0.1731E+20   14.792     
  54   1.4575 -1.2169   0.1604E+20   21.069     
  55   1.4590 -1.1839   0.1258E+20   31.576     
  56   1.4609 -1.1509   0.0857E+20   39.235     
INDEX:  4
TITLE:  INNER TARGET LANGMUIR PROBE DATA (temporary)
DATE:   April 15, 2000
AXIS:   4
SCALEF: 1.0
UNITS:  Te, Ti (eV)  Jsat (A)
COUNT:  1  24
NCOLS:  3
   1    10.0   18.0  18.0    7.5E+04		
   2    11.0   30.0  30.0   20.0E+04		
   3    12.0   22.0  22.0   32.0E+04		
   4    13.0   19.0  19.0   20.0E+04		
   5    14.0   15.0  15.0   14.0E+04
   6    15.0   13.0  13.0    9.0E+04
   7    16.0   10.0  10.0    5.0E+04
   8    17.0    9.0   9.0    2.5E+04
   9    18.0    7.5   7.5    1.5E+04
  10   	19.0    5.0   5.0    1.0E+04
  11    20.0    5.0   5.0    1.0E+04
  12    21.0    5.0   5.0    1.0E+04
  13    22.0    5.0   5.0    1.0E+04
  14    23.0    5.0   5.0    1.0E+04
  15    24.0    1.0   1.0    0.0001 
  16    25.0    1.0   1.0    0.0001 
  17    26.0    6.0   6.0    0.1E+04
  18    27.0    7.0   7.0    0.1E+04
  19    28.0    7.5   7.5    0.5E+04
  20    29.0    8.0   8.0    1.0E+04
  21    30.0    9.5   9.5    1.5E+04
  22    31.0   10.0  10.0    3.0E+04
  23    32.0   10.5  10.5    4.0E+04
  24    33.0   11.0  11.0    5.0E+04
$
INDEX:  5
TITLE:  OUTER TARGET LANGMUIR PROBE DATA (temporary)
DATE:   April 15, 2000
AXIS:   4
SCALEF: 1.0
UNITS:  Te, Ti (eV)  Jsat (A)
COUNT:  1  24
NCOLS:  3
   1    10.0   33.0  33.0   84.0E+04		
   2    11.0   26.0  26.0   41.0E+04		
   3    12.0   18.0  18.0   23.0E+04		
   4    13.0   10.0  10.0    9.0E+04		
   5    14.0    5.0   5.0    3.0E+04
   6    15.0    5.0   5.0    2.0E+04
   7    16.0    5.0   5.0    1.0E+04
   8    17.0    5.0   5.0    1.0E+04
   9    18.0    5.0   5.0    1.0E+04
  10   	19.0    5.0   5.0    1.0E+04
  11    20.0    5.0   5.0    1.0E+04
  12    21.0    5.0   5.0    1.0E+04
  13    22.0    5.0   5.0    1.0E+04
  14    23.0    5.0   5.0    1.0E+04
  15    24.0    1.0   1.0    0.0001 
  16    25.0    1.0   1.0    0.0001 
  17    26.0    1.0   1.0    0.1E+04
  18    27.0    1.0   1.0    0.1E+04
  19    28.0    1.0   1.0    0.1E+04
  20    29.0    1.0   1.0    0.1E+04
  21    30.0    1.0   1.0    0.1E+04
  22    31.0    1.0   1.0    1.0E+04
  23    32.0    3.0   3.0    2.0E+04
  24    33.0   11.0  11.0   19.0E+04
INDEX:  6
TITLE:  Core Th 1800 ms
DATE:   April 17, 2000
AXIS:   4
SCALEF: 1.0
UNITS:  Ne (m-3)  Te (eV)
COUNT:  1  31
NCOLS:  3
   1   1.940    -0.069       4.311E+19      1.030E+03
   2   1.940     0.044       4.148E+19      1.072E+03
   3   1.940     0.175       4.154E+19      7.725E+02
   4   1.940     0.288       3.518E+19      7.601E+02
   5   1.940     0.333       3.342E+19      6.339E+02
   6   1.940     0.372       3.348E+19      5.760E+02
   7   1.940     0.384       3.667E+19      5.005E+02
   8   1.940     0.405       3.090E+19      4.570E+02
   9   1.940     0.480       3.723E+19      5.012E+02
  10   1.940     0.545       3.329E+19      3.483E+02
  11   1.940     0.561       2.924E+19      2.549E+02
  12   1.940     0.576       3.214E+19      2.249E+02
  13   1.940     0.592       2.611E+19      1.910E+02
  14   1.940     0.605       2.589E+19      1.923E+02
  15   1.940     0.620       2.527E+19      1.708E+02
  16   1.940     0.636       2.718E+19      1.597E+02
  17   1.940     0.648       3.733E+19      1.084E+02
  18   1.940     0.662       2.231E+19      1.080E+02
  19   1.940     0.676       2.050E+19      8.734E+01
  20   1.940     0.689       1.726E+19      6.700E+01
  21   1.940     0.702       1.204E+19      3.449E+01
  22   1.940     0.714       7.452E+18      2.511E+01
  23   1.940     0.726       7.147E+18      2.010E+01
  24   1.940     0.739       3.458E+18      1.765E+01
  25   1.940     0.751       2.636E+18      9.804E+00
  26   1.940     0.765       3.797E+18      1.087E+01
  27   1.940     0.777       2.573E+18      1.515E+01
  28   1.940     0.788       2.661E+18      2.393E+01
  29   1.940     0.801       0.000E+18      0.000E+00
  30   1.940     0.813       2.735E+18      1.277E+01
  31   1.940     0.826       0.000E+18      0.000E+00
INDEX:  7
TITLE:  Core Th 1500-2000 ms (THIS DATA DOES NOT JIVE WITH THE 1800 ms DATA AT THE MOMENT)
DATE:   April 17, 2000
AXIS:   4
SCALEF: 1.0
UNITS:  Ne (m-3)  Te (eV)
COUNT:  1  657
NCOLS:  3
   1   1.940    0.5265      2.887E+19       2.942E+02 
   2   1.940    0.5311      3.113E+19       2.875E+02 
   3   1.940    0.5376      3.318E+19       2.618E+02 
   4   1.940    0.5382      3.174E+19       2.928E+02 
   5   1.940    0.5384      2.872E+19       2.977E+02 
   6   1.940    0.5392      3.272E+19       2.237E+02 
   7   1.940    0.5403      2.752E+19       2.783E+02 
   8   1.940    0.5405      2.945E+19       2.855E+02 
   9   1.940    0.5415      2.764E+19       2.884E+02 
  10   1.940    0.5417      2.802E+19       2.753E+02 
  11   1.940    0.5421      2.907E+19       2.770E+02 
  12   1.940    0.5424      2.735E+19       3.113E+02 
  13   1.940    0.5424      2.771E+19       2.534E+02 
  14   1.940    0.5428      3.206E+19       3.039E+02 
  15   1.940    0.5429      2.897E+19       2.769E+02 
  16   1.940    0.5430      3.364E+19       2.482E+02 
  17   1.940    0.5430      3.050E+19       2.111E+02 
  18   1.940    0.5432      2.815E+19       2.862E+02 
  19   1.940    0.5435      3.349E+19       2.944E+02 
  20   1.940    0.5439      3.456E+19       2.781E+02 
  21   1.940    0.5446      2.833E+19       2.963E+02 
  22   1.940    0.5446      3.371E+19       3.416E+02 
  23   1.940    0.5446      2.990E+19       2.967E+02 
  24   1.940    0.5452      3.347E+19       2.634E+02 
  25   1.940    0.5464      2.841E+19       2.645E+02 
  26   1.940    0.5465      2.685E+19       2.909E+02 
  27   1.940    0.5471      2.819E+19       2.197E+02 
  28   1.940    0.5475      2.838E+19       3.112E+02 
  29   1.940    0.5480      2.841E+19       3.145E+02 
  30   1.940    0.5482      2.738E+19       2.649E+02 
  31   1.940    0.5483      2.647E+19       2.740E+02 
  32   1.940    0.5487      2.744E+19       2.545E+02 
  33   1.940    0.5490      3.347E+19       2.440E+02 
  34   1.940    0.5490      2.789E+19       2.559E+02 
  35   1.940    0.5497      2.779E+19       2.684E+02 
  36   1.940    0.5499      2.914E+19       2.824E+02 
  37   1.940    0.5499      2.965E+19       2.949E+02 
  38   1.940    0.5507      2.815E+19       2.823E+02 
  39   1.940    0.5515      2.903E+19       2.807E+02 
  40   1.940    0.5517      2.956E+19       2.491E+02 
  41   1.940    0.5521      2.673E+19       2.755E+02 
  42   1.940    0.5523      3.416E+19       2.722E+02 
  43   1.940    0.5550      3.470E+19       2.481E+02 
  44   1.940    0.5551      2.708E+19       2.750E+02 
  45   1.940    0.5559      2.761E+19       2.620E+02 
  46   1.940    0.5570      3.270E+19       2.547E+02 
  47   1.940    0.5570      2.817E+19       2.354E+02 
  48   1.940    0.5571      3.188E+19       2.362E+02 
  49   1.940    0.5583      3.231E+19       2.461E+02 
  50   1.940    0.5588      3.379E+19       2.459E+02 
  51   1.940    0.5589      3.292E+19       2.691E+02 
  52   1.940    0.5592      3.055E+19       3.036E+02 
  53   1.940    0.5594      3.345E+19       2.435E+02 
  54   1.940    0.5602      2.884E+19       2.610E+02 
  55   1.940    0.5603      2.806E+19       2.689E+02 
  56   1.940    0.5605      2.884E+19       1.616E+02 
  57   1.940    0.5607      2.801E+19       2.251E+02 
  58   1.940    0.5609      2.900E+19       2.778E+02 
  59   1.940    0.5611      3.355E+19       2.182E+02 
  60   1.940    0.5612      2.883E+19       2.148E+02 
  61   1.940    0.5614      2.715E+19       2.376E+02 
  62   1.940    0.5616      3.566E+19       2.158E+02 
  63   1.940    0.5621      2.902E+19       3.093E+02 
  64   1.940    0.5628      2.843E+19       2.215E+02 
  65   1.940    0.5630      3.221E+19       2.396E+02 
  66   1.940    0.5634      3.061E+19       2.136E+02 
  67   1.940    0.5640      3.065E+19       2.308E+02 
  68   1.940    0.5640      3.313E+19       2.103E+02 
  69   1.940    0.5644      3.076E+19       2.710E+02 
  70   1.940    0.5649      3.252E+19       2.390E+02 
  71   1.940    0.5651      3.202E+19       2.589E+02 
  72   1.940    0.5657      3.142E+19       2.146E+02 
  73   1.940    0.5657      2.891E+19       2.379E+02 
  74   1.940    0.5664      3.348E+19       2.259E+02 
  75   1.940    0.5664      2.567E+19       2.249E+02 
  76   1.940    0.5665      3.301E+19       2.244E+02 
  77   1.940    0.5668      3.300E+19       2.175E+02 
  78   1.940    0.5676      3.194E+19       2.107E+02 
  79   1.940    0.5680      3.122E+19       2.192E+02 
  80   1.940    0.5683      3.302E+19       2.113E+02 
  81   1.940    0.5687      3.022E+19       2.024E+02 
  82   1.940    0.5699      2.789E+19       2.592E+02 
  83   1.940    0.5713      2.968E+19       2.319E+02 
  84   1.940    0.5724      2.994E+19       1.977E+02 
  85   1.940    0.5726      2.805E+19       1.971E+02 
  86   1.940    0.5737      3.137E+19       2.026E+02 
  87   1.940    0.5746      2.779E+19       2.204E+02 
  88   1.940    0.5747      2.581E+19       1.717E+02 
  89   1.940    0.5747      2.503E+19       2.404E+02 
  90   1.940    0.5754      3.181E+19       2.421E+02 
  91   1.940    0.5760      2.642E+19       2.097E+02 
  92   1.940    0.5764      2.566E+19       2.324E+02 
  93   1.940    0.5765      2.624E+19       1.920E+02 
  94   1.940    0.5765      3.092E+19       2.477E+02 
  95   1.940    0.5767      3.208E+19       1.915E+02 
  96   1.940    0.5769      2.708E+19       2.225E+02 
  97   1.940    0.5772      3.074E+19       2.072E+02 
  98   1.940    0.5772      3.005E+19       1.965E+02 
  99   1.940    0.5776      2.962E+19       2.903E+02 
