$
$    Diagnostic data sets for DIIID shot 134088 - power width study
$
$    Summary of data blocks in file:  103
$
$    INDEX  TITLE
$
$      1    CORE/MAIN THOMSON as a function of PSIn
$      2    CORE/MAIN THOMSON as a function of R,Z
$
$
$
$     Description of file format:
$
$     Each block of data is preceded by a header with specific
$     fields that may be optional.
$
$     The following are file headers
$
$     FILETITLE:  Describes file contents
$     FILECOUNT:  Lists number of datasets in file
$
$     The following are data set headers
$
$     INDEX: Number of data set in file - used for external selection
$     TITLE: Descriptive title for dataset
$     DATE:  Relevant date for determining validity of data
$     AXIS:  X-Axis type code ->  1=THETA  2=R 3=DIST 4=R,Z 5=CHAN
$     COUNT: Index numbers isolating the section of the dataset that
$            is relevant.
$     OFFSET:This input specifies an arbitrary value that will be
$            added to the data as an offset. If a value of -1.0 is
$            specified then the data extractor finds the minimum
$            value in the data set and subtracts this from all
$            data elements - this gives a way of accounting zero offsets
$            in the data.
$     CUTOFF:This quantity specifies a cutoff value - if the experimental
$            data is larger than this cutoff value - the data will be
$            set to zero. This is required to account for "glitches"
$            in the experimental data.
$     NCOLS: This input specifies the number of columns of experimental
$            data in the table - if it is not specified a value of
$            one (1) is assumed.
$
$     Only the INDEX field is ABSOLUTELY required. The others are
$     highly recommended. If the AXIS field is left off the AXIS
$     interpretation defaults to THETA in degrees.
$
$
FILETITLE: DIIID 134088 experimental diagnostic data 
FILECOUNT: 2
$
INDEX:  1
TITLE:  CORE THOMSON 2500 to 2900ms 134088
DATE:   April, 2010
AXIS:   6
SCALEF: 1.0
UNITS:  Psin, Ne [m-3], Te [eV]
COUNT:  1  859
NCOLS:  2
1	0.61081	4.352E+19	1406.752
2	0.47911	4.239E+19	1837.757
3	0.52759	4.879E+19	1394.727
4	0.39956	5.105E+19	1952.95
5	0.33112	5.485E+19	2178.581
6	0.21725	6.081E+19	2741.065
7	0.16113	6.774E+19	3476.592
8	0.1957	6.678E+19	3536.674
9	1.08607	3.09E+18	0.847
10	1.02872	3.02E+18	9.906
11	1.01514	5.03E+18	24.355
12	0.99887	1.302E+19	90.281
13	0.98243	2.908E+19	265.526
14	0.96714	4.371E+19	476.695
15	0.95048	4.179E+19	567.581
16	0.93377	4.419E+19	638.777
17	0.91831	4.356E+19	700.431
18	0.90153	4.51E+19	734.338
19	0.88467	4.46E+19	847.435
20	0.86641	4.581E+19	869.897
21	0.84933	4.544E+19	791.64
22	0.82946	4.891E+19	906.203
23	0.81075	4.427E+19	996.4
24	0.79187	4.52E+19	992.886
25	0.77284	4.43E+19	1023.988
26	0.75087	4.168E+19	1038.791
27	0.70485	4.606E+19	1109.434
28	0.63061	4.422E+19	1318.846
29	0.50116	4.425E+19	1810.83
30	0.54917	4.937E+19	1542.529
31	0.42146	5.269E+19	2044.685
32	0.35196	5.493E+19	2212.456
33	0.23459	6.224E+19	3259.376
34	0.17682	6.675E+19	3094.058
35	0.21476	6.637E+19	3234.982
36	1.08634	2.66E+18	5.816
37	1.04371	2.68E+18	0.643
38	1.02755	3.73E+18	9.067
39	1.01363	4.34E+18	21.897
40	0.99695	1.097E+19	52.437
41	0.98007	2.578E+19	180.257
42	0.96436	3.886E+19	409.697
43	0.94723	3.757E+19	496.455
44	0.93003	4.25E+19	578.973
45	0.9141	4.23E+19	653.588
46	0.89679	4.521E+19	739.253
47	0.8794	4.225E+19	765.307
48	0.86055	4.46E+19	843.033
49	0.84292	4.545E+19	839.218
50	0.82242	4.542E+19	940.115
51	0.80312	4.315E+19	978.682
52	0.78366	4.378E+19	1009.375
53	0.76404	4.385E+19	1170.429
54	0.74143	4.488E+19	1041.961
55	0.69416	4.336E+19	1191.431
56	0.61824	4.377E+19	1504.522
57	0.48706	4.164E+19	1816.038
58	0.53552	4.871E+19	1431.184
59	0.40714	5.017E+19	2031.465
60	0.33798	5.43E+19	2358.867
61	0.22227	6.111E+19	2772.819
62	0.16556	6.863E+19	3288.206
63	0.20213	6.911E+19	3276.079
64	1.08634	2E+18	7.031
65	1.07249	2.35E+18	14.894
66	1.04371	3.37E+18	10.214
67	1.02755	4.54E+18	22.038
68	1.01363	1.266E+19	48.391
69	0.99695	2.646E+19	163.807
70	0.98007	4.286E+19	384.9
71	0.96436	4.779E+19	576.66
72	0.94723	4.716E+19	605.267
73	0.93003	4.796E+19	647.078
74	0.9141	4.609E+19	736.57
75	0.89679	4.909E+19	775.628
76	0.8794	4.684E+19	818.122
77	0.86055	4.484E+19	807.299
78	0.84292	4.751E+19	980.55
79	0.82242	4.957E+19	940.661
80	0.80312	4.65E+19	1089.524
81	0.78366	4.677E+19	1043.858
82	0.76404	4.554E+19	1010.49
83	0.74143	4.603E+19	1168.079
84	0.69416	4.641E+19	1171.032
85	0.61824	4.184E+19	1499.727
86	0.48706	4.235E+19	1999.764
87	0.53552	4.805E+19	1650.097
88	0.40714	5.378E+19	2134.663
89	0.33798	5.574E+19	2139.923
90	0.22227	5.862E+19	2794.301
91	0.16556	6.609E+19	3101.701
92	0.20213	6.509E+19	2973.187
93	1.08822	1.072E+19	147.165
94	1.07451	2.95E+18	115.135
95	1.06044	2.11E+18	66.448
96	1.01622	3.91E+18	39.976
97	0.9997	1.519E+19	100.859
98	0.983	3.766E+19	357.389
99	0.96747	4.721E+19	551.255
100	0.95055	4.587E+19	639.741
101	0.93356	4.609E+19	673.544
102	0.91784	4.552E+19	698.542
103	0.90077	5.013E+19	780.239
104	0.8836	4.65E+19	874.328
105	0.86499	4.65E+19	841.805
106	0.84756	4.869E+19	1046.144
107	0.82726	5.028E+19	941.524
108	0.80814	4.838E+19	1061.47
109	0.78886	4.78E+19	1018.676
110	0.76942	4.639E+19	1046.475
111	0.747	4.578E+19	1176.597
112	0.7001	4.606E+19	1215.589
113	0.62464	4.341E+19	1524.735
114	0.49378	4.417E+19	1885.288
115	0.54221	5.004E+19	1503.894
116	0.41364	5.284E+19	1871.235
117	0.34402	5.305E+19	2173.537
118	0.22697	6.186E+19	3004.38
119	0.16951	6.658E+19	3146.819
120	0.20698	6.62E+19	3233.083
121	1.01622	3.91E+18	31.944
122	0.9997	1.363E+19	67.395
123	0.983	2.797E+19	223.697
124	0.96747	3.691E+19	436.36
125	0.95055	3.936E+19	533.769
126	0.93356	4.257E+19	559.912
127	0.91784	4.293E+19	712.217
128	0.90077	4.556E+19	686.088
129	0.8836	4.288E+19	785.88
130	0.86499	4.167E+19	824.778
131	0.84756	4.498E+19	1033.158
132	0.82726	4.705E+19	922.678
133	0.80814	4.381E+19	950.629
134	0.78886	4.508E+19	1100.306
135	0.76942	4.505E+19	1051.731
136	0.747	4.277E+19	1120.754
137	0.7001	4.363E+19	1263.941
138	0.62464	4.36E+19	1394.811
139	0.49378	4.111E+19	1873.648
140	0.54221	4.985E+19	1673.911
141	0.41364	5.346E+19	2013.508
142	0.34402	5.699E+19	2279.531
143	0.22697	6.047E+19	2812.332
144	0.16951	6.43E+19	3145.636
145	0.20698	5.727E+19	2797.626
146	1.0931	3.44E+18	8.912
147	1.07844	3.78E+18	7.717
148	1.06339	4.14E+18	14.291
149	1.04797	6.31E+18	1.357
150	1.03086	4.53E+18	8.04
151	1.01611	4.77E+18	37.049
152	0.99841	1.339E+19	75.632
153	0.98045	2.846E+19	267.956
154	0.96369	4.324E+19	491.164
155	0.94538	4.615E+19	574.289
156	0.92694	4.699E+19	685.023
157	0.90984	4.796E+19	687.67
158	0.89122	4.851E+19	757.225
159	0.87248	4.656E+19	735.47
160	0.85215	4.559E+19	835.541
161	0.83313	4.571E+19	894.737
162	0.81101	4.988E+19	812.454
163	0.79021	4.453E+19	1044.572
164	0.76929	4.595E+19	1055.317
165	0.74825	4.733E+19	1195.122
166	0.72409	4.505E+19	1204.718
167	0.67389	4.526E+19	1184.191
168	0.59434	4.545E+19	1405.94
169	0.46036	4.55E+19	2099.808
170	0.50933	4.994E+19	1676.002
171	0.38087	5.309E+19	2032.158
172	0.31326	5.487E+19	2278.277
173	0.20197	6.393E+19	2772.392
174	0.14611	6.734E+19	3185.533
175	0.17647	6.764E+19	3450.648
176	1.09119	2.29E+18	6.567
177	1.03048	4.42E+18	9.143
178	1.0161	7.99E+18	25.169
179	0.99884	1.44E+19	91.77
180	0.98136	2.989E+19	284.863
181	0.96507	4.224E+19	521.309
182	0.94728	4.272E+19	614.485
183	0.92938	4.421E+19	633.006
184	0.9128	4.726E+19	690.358
185	0.89475	4.757E+19	743.132
186	0.8766	4.315E+19	909.143
187	0.8569	4.4E+19	831.431
188	0.83846	4.39E+19	954.248
189	0.81701	4.726E+19	875.885
190	0.79683	4.623E+19	1011.961
191	0.7765	4.536E+19	1051.204
192	0.75604	4.561E+19	1150.435
193	0.7325	4.248E+19	1061.424
194	0.68348	4.659E+19	1184.295
195	0.60536	4.124E+19	1434.831
196	0.47243	4.483E+19	1986.895
197	0.52123	4.96E+19	1335.123
198	0.39269	5.252E+19	2028.465
199	0.32439	5.802E+19	2292.325
200	0.21126	6.021E+19	2957.362
201	0.15533	6.724E+19	3067.251
202	0.18872	6.294E+19	3367.236
203	1.09119	3.2E+18		6.032
204	1.07689	2.79E+18	12.022
205	1.06221	1.98E+18	64.975
206	1.04716	4.01E+18	1.397
207	1.03048	3.3E+18		8.378
208	1.0161	6.04E+18	21.955
209	0.99884	1.168E+19	29.448
210	0.98136	2.659E+19	157.92
211	0.96507	3.58E+19	323.404
212	0.94728	3.678E+19	474.502
213	0.92938	3.756E+19	560.674
214	0.9128	3.905E+19	631.979
215	0.89475	4.166E+19	753.351
216	0.8766	3.822E+19	810.64
217	0.8569	4.058E+19	845.978
218	0.83846	4.174E+19	948.444
219	0.81701	4.608E+19	837.782
220	0.79683	4.245E+19	1031.628
221	0.7765	4.146E+19	1062.986
222	0.75604	4.195E+19	1046.037
223	0.7325	4.113E+19	1063.74
224	0.68348	4.13E+19	1175.371
225	0.60536	4.346E+19	1434.328
226	0.47243	4.318E+19	1794.262
227	0.52123	4.714E+19	1641.276
228	0.39269	5.348E+19	1872.958
229	0.32439	5.274E+19	2183.023
230	0.21126	6.141E+19	2767.316
231	0.15533	6.333E+19	2892.492
232	0.18872	6.985E+19	3274.73
233	1.03243	2.89E+18	9.738
234	1.01902	4.3E+18		24.387
235	1.00296	8.99E+18	63.757
236	0.98674	2.153E+19	170.313
237	0.97165	3.955E+19	411.655
238	0.95522	4.44E+19	620.701
239	0.93873	4.586E+19	605.892
240	0.92349	4.539E+19	737.33
241	0.90693	4.718E+19	742.993
242	0.89028	4.475E+19	747.045
243	0.87222	4.56E+19	792.557
244	0.8553	4.5E+19		899.271
245	0.83558	4.916E+19	914.99
246	0.817	4.439E+19	1056.872
247	0.79824	4.386E+19	1149.943
248	0.77931	4.516E+19	1140.206
249	0.75745	4.44E+19	1137.76
250	0.71161	4.54E+19	1152.211
251	0.63751	4.094E+19	1459.034
252	0.50784	4.219E+19	1969.419
253	0.55601	4.761E+19	1441.195
254	0.42766	4.994E+19	2029.818
255	0.35751	5.541E+19	2520.939
256	0.23849	5.826E+19	2778.067
257	0.17945	6.251E+19	2844.087
258	0.21766	6.233E+19	3017.81
259	1.01744	2.3E+18		18.128
260	0.99993	1.274E+19	42.118
261	0.98217	1.999E+19	150.891
262	0.96561	4.133E+19	411.85
263	0.94752	4.032E+19	528.402
264	0.9293	4.235E+19	678.97
265	0.91242	4.148E+19	625.391
266	0.89404	4.637E+19	693.818
267	0.87554	4.194E+19	736.121
268	0.85548	4.332E+19	774.495
269	0.83671	4.374E+19	999.424
270	0.81488	4.484E+19	941.241
271	0.79435	4.302E+19	994.309
272	0.77369	4.476E+19	966.516
273	0.75291	4.249E+19	1177.658
274	0.72903	4.166E+19	1085.925
275	0.67939	4.207E+19	1170.489
276	0.60059	4.082E+19	1468.226
277	0.46744	4.167E+19	1971.582
278	0.51618	5.067E+19	1524.953
279	0.38814	5.066E+19	1839.102
280	0.3205	5.16E+19	2217.799
281	0.20876	5.998E+19	3053.204
282	0.15242	6.591E+19	3111.864
283	0.18287	6.399E+19	2634.808
284	1.09364	1.58E+18	8.018
285	1.04897	2.44E+18	1.41
286	1.01744	4.45E+18	22.215
287	0.99993	1.262E+19	59.85
288	0.98217	3.042E+19	308.914
289	0.96561	4.461E+19	520.616
290	0.94752	4.771E+19	611.513
291	0.9293	4.77E+19	693.641
292	0.91242	4.674E+19	650.577
293	0.89404	4.73E+19	779.691
294	0.87554	4.568E+19	807.256
295	0.85548	4.656E+19	884.89
296	0.83671	4.865E+19	975.63
297	0.81488	4.651E+19	891.18
298	0.79435	4.55E+19	1084.669
299	0.77369	4.515E+19	1081.719
300	0.75291	4.621E+19	1204.84
301	0.72903	4.428E+19	1115.711
302	0.67939	4.466E+19	1250.107
303	0.60059	4.412E+19	1474.801
304	0.46744	4.026E+19	1847.574
305	0.51618	4.27E+19	1661.741
306	0.38814	4.986E+19	1910.743
307	0.3205	5.568E+19	2303.123
308	0.20876	6.277E+19	2767.001
309	0.15242	6.315E+19	2780.541
310	0.18287	5.791E+19	2593.207
311	1.08663	2.58E+18	3.068
312	1.04477	2.95E+18	1.765
313	1.0289	2.59E+18	25.735
314	1.01523	5.68E+18	14.344
315	0.99886	1.372E+19	67.285
316	0.9823	3E+19		210.018
317	0.96689	3.894E+19	441.532
318	0.95011	3.851E+19	544.039
319	0.93326	4.033E+19	584.706
320	0.91767	4.139E+19	676.169
321	0.90073	4.366E+19	701.93
322	0.88372	4.243E+19	785.6
323	0.86529	4.131E+19	822.267
324	0.84804	4.093E+19	973.554
325	0.82798	4.459E+19	861.784
326	0.80909	4.196E+19	954.325
327	0.79003	4.222E+19	1027.996
328	0.77081	4.366E+19	1123.46
329	0.74864	4.196E+19	1100.745
330	0.70222	4.455E+19	1124.55
331	0.6274	4.187E+19	1435.803
332	0.49725	4.103E+19	1863.303
333	0.54546	4.643E+19	1377.061
334	0.41736	5.138E+19	1883.302
335	0.34788	5.578E+19	2232.106
336	0.23104	6.177E+19	3105.856
337	0.17423	6.485E+19	3187.362
338	0.2127	6.696E+19	2698.707
339	1.08663	6.12E+18	15.423
340	1.07303	7.98E+18	11.515
341	1.05908	6.72E+18	18.824
342	1.04477	6.57E+18	17.101
343	1.0289	9.06E+18	12.12
344	1.01523	8.08E+18	16.923
345	0.99886	9.41E+18	32.775
346	0.9823	1.453E+19	59.079
347	0.96689	2.642E+19	178.8
348	0.95011	3.27E+19	403.683
349	0.93326	3.458E+19	535.328
350	0.91767	3.569E+19	699.057
351	0.90073	3.999E+19	616.172
352	0.88372	3.736E+19	629.248
353	0.86529	3.737E+19	761.034
354	0.84804	3.929E+19	921.308
355	0.82798	4.276E+19	882.246
356	0.80909	4.128E+19	938.483
357	0.79003	4.131E+19	1057.303
358	0.77081	4.257E+19	1016.115
359	0.74864	4.168E+19	1070.681
360	0.70222	4.303E+19	1128.236
361	0.6274	4.446E+19	1451.013
362	0.49725	4.105E+19	1896.544
363	0.54546	5.108E+19	1645.401
364	0.41736	5.301E+19	1742.746
365	0.34788	5.47E+19	2139.525
366	0.23104	6.137E+19	2667.856
367	0.17423	6.288E+19	2948.774
368	0.2127	6.907E+19	3995.032
369	1.08508	3.26E+18	7.764
370	1.04336	2.23E+18	10.11
371	1.02755	2.48E+18	26.008
372	1.01393	7.03E+18	17.367
373	0.99762	1.1E+19	58.464
374	0.98113	2.204E+19	178.865
375	0.9658	4.163E+19	437.792
376	0.9491	4.388E+19	565.066
377	0.93234	4.451E+19	648.971
378	0.91684	4.437E+19	695.627
379	0.90001	4.764E+19	736.335
380	0.88311	4.642E+19	801.507
381	0.8648	4.743E+19	868.399
382	0.84768	4.322E+19	990.232
383	0.82775	4.846E+19	885.732
384	0.809	4.381E+19	1058.285
385	0.79008	4.536E+19	1030.642
386	0.77099	4.435E+19	1231.262
387	0.74897	4.388E+19	1236.518
388	0.70286	4.647E+19	1216.333
389	0.62848	4.157E+19	1491.381
390	0.49891	4.059E+19	1838.979
391	0.54694	5.135E+19	1655.401
392	0.41925	5.212E+19	1950.14
393	0.34988	5.368E+19	2333.377
394	0.23316	5.922E+19	3022.335
395	0.17668	6.387E+19	3051.843
396	0.21575	6.436E+19	3467.944
397	1.04664	4.65E+18	1.625
398	1.01734	4.7E+18	17.916
399	1.0011	1.42E+19	54.877
400	0.98467	3.052E+19	173.925
401	0.9694	3.618E+19	409.294
402	0.95275	3.801E+19	496.572
403	0.93604	3.701E+19	546.844
404	0.92059	3.899E+19	647.534
405	0.90379	4.389E+19	828.799
406	0.8869	3.866E+19	705.576
407	0.86858	4.307E+19	820.718
408	0.85142	4.385E+19	927.51
409	0.83143	4.28E+19	750.139
410	0.8126	4.045E+19	973.499
411	0.79359	4.195E+19	947.964
412	0.77442	4.112E+19	1053.657
413	0.7523	3.882E+19	1124.453
414	0.70598	4.52E+19	1125.873
415	0.63131	3.933E+19	1485.435
416	0.50138	4.241E+19	1937.767
417	0.54953	4.893E+19	1668.409
418	0.42153	5.394E+19	1821.356
419	0.35198	5.57E+19	2261.682
420	0.23468	6.267E+19	2943.726
421	0.17689	6.712E+19	3146.092
422	0.21452	6.769E+19	3475.612
423	1.08817	9.57E+18	22.158
424	1.07468	1.045E+19	49.379
425	1.06084	1.708E+19	60.429
426	1.04664	1.261E+19	39.498
427	1.0309	1.239E+19	58.091
428	1.01734	1.145E+19	60.868
429	1.0011	1.701E+19	128.901
430	0.98467	2.731E+19	318.114
431	0.9694	2.739E+19	302.295
432	0.95275	3.123E+19	484.062
433	0.93604	3.273E+19	496.182
434	0.92059	3.479E+19	500.577
435	0.90379	3.646E+19	606.084
436	0.8869	3.377E+19	552.068
437	0.86858	3.143E+19	585.138
438	0.85142	3.235E+19	731.25
439	0.83143	4.249E+19	866.827
440	0.8126	4.102E+19	1048.665
441	0.79359	4.295E+19	951.225
442	0.77442	4.134E+19	864.899
443	0.7523	3.842E+19	1058.698
444	0.70598	4.079E+19	1170.297
445	0.63131	4.108E+19	1377.467
446	0.50138	4.041E+19	1984.23
447	0.54953	4.711E+19	1465.697
448	0.42153	4.817E+19	2003.689
449	0.35198	5.27E+19	2225.569
450	0.23468	6.277E+19	3339.326
451	0.17689	6.474E+19	3235.525
452	0.21452	6.702E+19	3164.001
453	1.05871	1.2E+18	23.967
454	1.01437	4.3E+18	20.494
455	0.99781	1.338E+19	78.877
456	0.98107	3.012E+19	255.84
457	0.9655	4.095E+19	457.267
458	0.94854	4.246E+19	586.115
459	0.93151	4.276E+19	680.319
460	0.91577	4.036E+19	697.833
461	0.89867	4.582E+19	769.965
462	0.8815	4.403E+19	829.417
463	0.86291	4.412E+19	878.557
464	0.84552	4.222E+19	848.964
465	0.82531	4.537E+19	813.477
466	0.8063	4.463E+19	935.907
467	0.78713	4.313E+19	989.949
468	0.76781	4.273E+19	1054.514
469	0.74555	4.211E+19	1182.347
470	0.69899	4.27E+19	1131.449
471	0.62416	4.004E+19	1433.71
472	0.49456	4.006E+19	1877.363
473	0.54249	4.489E+19	1741.803
474	0.41534	4.98E+19	2253.037
475	0.34662	5.393E+19	2464.485
476	0.23129	6.083E+19	2905.741
477	0.17488	6.249E+19	3356.512
478	0.21194	6.197E+19	2934.183
479	1.08776	1.88E+18	9.315
480	1.06013	4.91E+18	0.553
481	1.04578	2.46E+18	9.51
482	1.02987	4.06E+18	10.934
483	1.01617	3.57E+18	20.579
484	0.99974	8.55E+18	31.302
485	0.98314	2.338E+19	98.595
486	0.9677	3.293E+19	304.232
487	0.95087	3.566E+19	457.771
488	0.93398	3.715E+19	534.276
489	0.91835	3.708E+19	586.361
490	0.90137	4.191E+19	692.934
491	0.8843	3.98E+19	798.925
492	0.86579	3.821E+19	764.179
493	0.84846	4.052E+19	943.234
494	0.82827	4.21E+19	771.7
495	0.80927	4.16E+19	872.443
496	0.7901	4.244E+19	962.868
497	0.77077	4.187E+19	1067.397
498	0.74848	4.241E+19	1105.284
499	0.70187	4.189E+19	1200.258
500	0.62691	4.227E+19	1320.492
501	0.49699	4.109E+19	1761.524
502	0.54506	4.683E+19	1561.188
503	0.4175	5.115E+19	1896.768
504	0.34846	5.298E+19	2388.487
505	0.23242	6.031E+19	2875.684
506	0.17534	6.368E+19	2811.587
507	0.21229	6.368E+19	2534.738
508	1.07412	3.36E+18	13.151
509	1.06013	4.07E+18	11.521
510	1.02987	2.84E+18	29.568
511	1.01617	6.61E+18	30.312
512	0.99974	1.445E+19	93.098
513	0.98314	2.969E+19	304.6
514	0.9677	4.242E+19	487.449
515	0.95087	4.473E+19	640.796
516	0.93398	4.511E+19	727.479
517	0.91835	4.51E+19	742.145
518	0.90137	4.8E+19	774.535
519	0.8843	4.855E+19	799.611
520	0.86579	4.332E+19	851.139
521	0.84846	4.505E+19	999.174
522	0.82827	4.889E+19	909.305
523	0.80927	4.498E+19	1001.718
524	0.7901	4.602E+19	1144.762
525	0.77077	4.459E+19	1103.965
526	0.74848	4.112E+19	1117.24
527	0.70187	4.421E+19	1214.589
528	0.62691	4.314E+19	1451.843
529	0.49699	4.175E+19	1871.781
530	0.54506	4.477E+19	1830.607
531	0.4175	5.367E+19	1981.623
532	0.34846	5.626E+19	2323.238
533	0.23242	5.945E+19	3294.774
534	0.17534	6.655E+19	3244.054
535	0.21229	6.537E+19	4019.403
536	1.08912	2.26E+18	13.334
537	1.07541	1.99E+18	7.799
538	1.06136	2.92E+18	8.305
539	1.04693	1.59E+18	9.744
540	1.01718	5.58E+18	39.42
541	1.00068	1.379E+19	59.834
542	0.98401	2.662E+19	180.427
543	0.9685	3.831E+19	393.804
544	0.95161	3.853E+19	506.621
545	0.93465	3.952E+19	607.77
546	0.91896	4.147E+19	672.73
547	0.90192	4.302E+19	716.014
548	0.8848	3.893E+19	812.352
549	0.86624	4.034E+19	878.126
550	0.84885	4.127E+19	991.786
551	0.82861	4.212E+19	920.307
552	0.80956	4.101E+19	1051.537
553	0.79035	4.358E+19	1106.071
554	0.77098	4.075E+19	1057.082
555	0.74865	4.193E+19	1120.168
556	0.70197	4.476E+19	1152.087
557	0.62694	4.364E+19	1614.907
558	0.49702	4.31E+19	1913.627
559	0.54507	4.763E+19	1476.294
560	0.41756	5.283E+19	2203.965
561	0.34858	5.411E+19	2283.138
562	0.23259	5.847E+19	2810.347
563	0.17527	6.714E+19	3255.996
564	0.21172	6.489E+19	3446.697
565	1.08912	3.86E+18	7.575
566	1.07541	3.7E+18	6.565
567	1.06136	3.46E+18	11.911
568	1.04693	3.11E+18	7.327
569	1.03095	3.94E+18	11.295
570	1.01718	3.72E+18	30.759
571	1.00068	1.033E+19	36.588
572	0.98401	1.624E+19	101.451
573	0.9685	3.032E+19	200.982
574	0.95161	3.418E+19	420.484
575	0.93465	3.498E+19	500.737
576	0.91896	3.666E+19	617.942
577	0.90192	3.798E+19	675.855
578	0.8848	3.788E+19	771.448
579	0.86624	4.053E+19	732.658
580	0.84885	3.977E+19	904.681
581	0.82861	4.322E+19	848.816
582	0.80956	3.984E+19	914.278
583	0.79035	4.037E+19	1075.746
584	0.77098	4.189E+19	1076.16
585	0.74865	4.174E+19	1028.078
586	0.70197	4.372E+19	1122.242
587	0.62694	4.059E+19	1442.378
588	0.49702	4.041E+19	2156.094
589	0.54507	4.435E+19	1628.26
590	0.41756	5.131E+19	2125.548
591	0.34858	5.132E+19	2183.714
592	0.23259	5.71E+19	2431.69
593	0.17527	6.324E+19	3217.424
594	0.21172	5.972E+19	2696.522
595	1.08807	1.181E+19	84.604
596	1.07472	1.223E+19	85.997
597	1.06103	1.305E+19	73.829
598	1.04697	1.32E+19	48.836
599	1.0314	1.304E+19	78.033
600	1.01799	9.93E+18	46.175
601	1.00194	1.101E+19	75.086
602	0.98573	1.126E+19	95.751
603	0.97067	1.323E+19	110.623
604	0.95429	1.485E+19	181.676
605	0.93786	2.199E+19	313.68
606	0.92268	2.811E+19	416.831
