$
$    Diagnostic data sets for DIIID shot 86575 at 1650ms - Grid c54 (UEDGE case number)
$
$    Summary of data blocks in file:  1
$
$    INDEX  TITLE
$
$      1    DIVERTOR THOMSON MAPPED TO 1650 ms (remap_divts_86575.1650)
$              (1587, 1637, 1687 and 1737 ms)
$      2    CORE/MAIN THOMSON AT 1650ms (ws_thomson_86575_1650.dat)
$      3    LOWER-LOOKING PHOTO DIODE AT 1650ms (ws_phdlw_86575_1650.dat)
$      4    Bolometry at 1650ms
$      5    CORE/MAIN THOMSON 1550-1750 ms (ws_thombr_86575_1550.dat)
$                                  EFIT       MAPPING         FILE
$      6    DTS DATA AT 1650 ms    default    unnormalized    remap_divts_86575.1650_def
$      7    DTS DATA AT 1650 ms    default    normalized      remap_divts_86575.1650_def_norm     
$      8    DTS DATA AT 1650 ms    jt         unnormalized    remap_divts_86575.1650_jt   
$      9    DTS DATA AT 1650 ms    jt         normalized      remap_divts_86575.1650_jt_norm  
$              (1587, 1637, 1687 and 1737 ms)
$     10    DIVERTOR THOMSON MAPPED TO 1650 ms (remap_divts_86575.1650)
$              (1637 and 1687 ms)
$     11    DIVERTOR THOMSON MAPPED TO 1650 ms (remap_divts_86575.1650)
$              (1587 and 1737 ms)
$     12    INNER TARGET LANGMUIR PROBE DATA (date?)
$     13    OUTER TARGET LANGMUIR PROBE DATA (date?)
$     14    IRTV data at 1650ms in units of MW/m2 R,Z Coordinates  ws_irtvl_86575_1650.dat
$     15    IRTV data at 1650ms in units of MW/m2 R Cooridinate    ws_irtvl_86575_1650.dat
$
$     Description of file format:
$
$     Each block of data is preceded by a header with specific
$     fields that may be optional.
$
$     The following are file headers
$
$     FILETITLE:  Describes file contents
$     FILECOUNT:  Lists number of datasets in file
$
$     The following are data set headers
$
$     INDEX: Number of data set in file - used for external selection
$     TITLE: Descriptive title for dataset
$     DATE:  Relevant date for determining validity of data
$     AXIS:  X-Axis type code ->  1=THETA  2=R 3=DIST 4=R,Z 5=CHAN
$     COUNT: Index numbers isolating the section of the dataset that
$            is relevant.
$     OFFSET:This input specifies an arbitrary value that will be
$            added to the data as an offset. If a value of -1.0 is
$            specified then the data extractor finds the minimum
$            value in the data set and subtracts this from all
$            data elements - this gives a way of accounting zero offsets
$            in the data.
$     CUTOFF:This quantity specifies a cutoff value - if the experimental
$            data is larger than this cutoff value - the data will be
$            set to zero. This is required to account for "glitches"
$            in the experimental data.
$     NCOLS: This input specifies the number of columns of experimental
$            data in the table - if it is not specified a value of
$            one (1) is assumed.
$
$     Only the INDEX field is ABSOLUTELY required. The others are
$     highly recommended. If the AXIS field is left off the AXIS
$     interpretation defaults to THETA in degrees.
$
$
FILETITLE: DIIID 86575 experimental diagnostic data at 1650 ms
FILECOUNT: 15
$
INDEX:  1
TITLE:  DIV THOMSON 1650 ms (mapped from 1587, 1637, 1687 and 1737 ms)
DATE:   January 17, 2000
AXIS:   4
SCALEF: 1.0
UNITS:  Ne (m-3)  Te (eV)
COUNT:  1  32
NCOLS:  3
   1   1.4978	-1.3493   0.2634E+20    5.921			
   2   1.4971	-1.3294   0.3689E+20   17.030			
   3   1.4964	-1.3107   0.3466E+20   19.821			
   4   1.4957	-1.2910   0.2487E+20   24.472			
   5   1.4943	-1.2538   0.2091E+20   25.167			
   6   1.4929	-1.2187   0.1617E+20   27.998			
   7   1.4918	-1.1845   0.1133E+20   50.742			
   8   1.4915	-1.1502   0.0735E+20   30.082			
   9   1.4921	-1.3499   0.0986E+20    3.010			
  10   1.4919	-1.3309   0.3496E+20    4.748			
  11   1.4917	-1.3128   0.4059E+20   12.067			
  12   1.4914	-1.2938   0.2563E+20   23.050			
  13   1.4910	-1.2577   0.2156E+20   27.142			
  14   1.4907	-1.2235   0.1706E+20   25.444			
  15   1.4904	-1.1904   0.1295E+20   58.630			
  16   1.4902	-1.1574   0.0655E+20   56.351			
  17   1.4931	-1.3506   0.2190E+20    3.647			
  18   1.4933	-1.3323   0.4184E+20    8.562			
  19   1.4934	-1.3150   0.3950E+20   17.076			
  20   1.4936	-1.2968   0.2422E+20   15.805			
  21   1.4940	-1.2623   0.1892E+20   28.664			
  22   1.4943	-1.2297   0.1549E+20   35.751			
  23   1.4946	-1.1981   0.0975E+20   28.439			
  24   1.4949	-1.1666   0.0962E+20   29.975			
  25   1.4998	-1.3475   0.2306E+20    6.412			
  26   1.4977	-1.3258   0.3247E+20   14.674			
  27   1.4958	-1.3054   0.2528E+20   18.039			
  28   1.4936	-1.2841   0.2268E+20   19.861			
  29   1.4897	-1.2441   0.1765E+20   24.395			
  30   1.4864	-1.2062   0.1132E+20   30.228			
  31   1.4841	-1.1691   0.1248E+20   35.543			
  32   1.4851	-1.1315   0.0784E+20   38.351			
INDEX:  2
TITLE:  CORE THOMSON 1650 ms
DATE:   January 19, 2000
AXIS:   4
SCALEF: 1.0
UNITS:  Ne (m-3)  Te (eV)
COUNT:  1  36
NCOLS:  3
   1   1.940  -0.188    2.236E+19   1.084E+03     
   2   1.940  -0.087    2.516E+19   1.348E+03
   3   1.940   0.012    2.420E+19   1.342E+03
   4   1.940   0.029    2.273E+19   1.510E+03
   5   1.940   0.119    2.346E+19   1.458E+03
   6   1.940   0.220    2.318E+19   1.148E+03
   7   1.940   0.266    2.305E+19   1.140E+03
   8   1.940   0.315    2.188E+19   9.800E+02
   9   1.940   0.368    2.081E+19   8.292E+02
  10   1.940   0.433    1.904E+19   7.600E+02
  11   1.940   0.505    1.893E+19   6.037E+02
  12   1.940   0.511    1.763E+19   6.110E+02
  13   1.940   0.545    1.579E+19   5.576E+02
  14   1.940   0.578    1.542E+19   4.741E+02
  15   1.940   0.606    1.470E+19   4.457E+02
  16   1.940   0.635    1.392E+19   3.376E+02
  17   1.940   0.662    1.395E+19   3.102E+02
  18   1.940   0.688    1.225E+19   3.045E+02
  19   1.940   0.701    1.350E+19   2.584E+02
  20   1.940   0.714    1.153E+19   2.754E+02
  21   1.940   0.726    1.262E+19   2.340E+02
  22   1.940   0.751    1.216E+19   2.492E+02
  23   1.940   0.763    1.016E+19   1.610E+02
  24   1.940   0.776    1.067E+19   1.584E+02
  25   1.940   0.788    9.938E+18   1.451E+02
  26   1.940   0.801    8.759E+18   1.267E+02
  27   1.940   0.814    8.194E+18   8.487E+01
  28   1.940   0.826    7.385E+18   7.415E+01
  29   1.940   0.838    4.334E+18   4.605E+01
  30   1.940   0.851    4.081E+18   2.118E+01
  31   1.940   0.864    3.387E+18   2.391E+01
  32   1.940   0.877    2.072E+18   2.295E+01
  33   1.940   0.890    2.008E+18   2.224E+01
  34   1.940   0.903    2.592E+18   1.567E+01
  35   1.940   0.917    2.915E+18   1.202E+01
  36   1.940   0.945    2.040E+18   8.298E+00
INDEX:  3
TITLE:  Lower Looking PD 1650 ms
DATE:   January 19, 2000
AXIS:   1
SCALEF: 1.0
UNITS:  Ph/m2/sec
COUNT:  1  7
NCOLS:  1
 1   251.42     1.200E+21
 2   252.81     3.594E+20
 3   255.28     3.862E+20
 4   257.67     3.072E+20
 5   259.86     9.655E+20
 6   261.94     3.095E+20
 7   264.03     1.348E+20
INDEX:  4
TITLE:  DIIID Bolometer at 1650ms
DATE:   January 20, 2000
AXIS:   5
SCALEF: 1.0
UNITS:  W/m^2 
COUNT:  1  48
NCOLS:  1
     1     0	 4.218e-05
     2     1	 2.293e-04
     3     2	 2.649e-04
     4     3	 8.434e-05
     5     4	 2.035e-04
     6     5	 2.213e-04
     7     6	 1.913e-04
     8     7	 9.283e-05
     9     8	 2.034e-04
    10     9	 1.238e-04
    11    10	 5.356e-05
    12    11	 3.139e-04
    13    12	 1.111e-04
    14    13	 6.834e-05
    15    14	 3.515e-05
    16    15	 2.073e-04
    17    16	 1.250e-04
    18    17	 9.052e-05
    19    18	 8.789e-05
    20    19	 9.661e-05
    21    20	 4.354e-05
    22    21	 7.362e-05
    23    22	 0.000e+00
    24    23	 1.120e-05
    25    24	 5.130e-04
    26    25	 3.363e-04
    27    26	 9.567e-04
    28    27	 5.825e-04
    29    28	 4.405e-04
    30    29	 2.658e-04
    31    30	 2.281e-04
    32    31	 2.833e-04
    33    32	 1.855e-04
    34    33	 9.985e-05
    35    34	 2.309e-04
    36    35	 2.035e-04
    37    36	 3.102e-04
    38    37	 2.733e-04
    39    38	 2.317e-04
    40    39	 9.074e-05
    41    40	 1.286e-04
    42    41	 2.318e-05
    43    42	 6.640e-05
    44    43	 1.163e-04
    45    44	 1.159e-04
    46    45	 9.108e-05
    47    46	 1.561e-04
    48    47	 3.894e-04
INDEX:  5
TITLE:  CORE Th 1550-1750 ms
DATE:   February 9, 2000
AXIS:   4
SCALEF: 1.0
UNITS:  Ne (m-3)  Te (eV)
COUNT:  1  498
NCOLS:  3
   1   1.940     0.5831       1.452E+19      3.654E+02
   2   1.940     0.6021       1.479E+19      4.111E+02
   3   1.940     0.6030       1.422E+19      3.995E+02
   4   1.940     0.6030       1.395E+19      3.471E+02
   5   1.940     0.6042       1.378E+19      3.640E+02
   6   1.940     0.6042       1.431E+19      4.240E+02
   7   1.940     0.6054       1.357E+19      3.580E+02
   8   1.940     0.6091       1.470E+19      4.027E+02
   9   1.940     0.6099       1.284E+19      3.435E+02
  10   1.940     0.6099       1.335E+19      3.957E+02
  11   1.940     0.6100       1.348E+19      3.009E+02
  12   1.940     0.6132       1.400E+19      2.942E+02
  13   1.940     0.6137       1.397E+19      3.546E+02
  14   1.940     0.6141       1.449E+19      3.283E+02
  15   1.940     0.6154       1.371E+19      4.091E+02
  16   1.940     0.6154       1.468E+19      3.561E+02
  17   1.940     0.6165       1.321E+19      3.980E+02
  18   1.940     0.6172       1.446E+19      3.659E+02
  19   1.940     0.6202       1.327E+19      3.299E+02
  20   1.940     0.6213       1.386E+19      4.409E+02
  21   1.940     0.6213       1.307E+19      3.526E+02
  22   1.940     0.6260       1.386E+19      3.065E+02
  23   1.940     0.6260       1.410E+19      3.127E+02
  24   1.940     0.6266       1.354E+19      3.886E+02
  25   1.940     0.6289       1.314E+19      3.159E+02
  26   1.940     0.6289       1.493E+19      3.452E+02
  27   1.940     0.6329       1.547E+19      2.983E+02
  28   1.940     0.6343       1.540E+19      3.196E+02
  29   1.940     0.6373       1.522E+19      3.494E+02
  30   1.940     0.6379       1.517E+19      3.317E+02
  31   1.940     0.6379       1.396E+19      3.633E+02
  32   1.940     0.6391       1.479E+19      3.928E+02
  33   1.940     0.6391       1.415E+19      3.015E+02
  34   1.940     0.6402       1.424E+19      3.217E+02
  35   1.940     0.6437       1.457E+19      3.354E+02
  36   1.940     0.6442       1.439E+19      2.738E+02
  37   1.940     0.6442       1.433E+19      3.014E+02
  38   1.940     0.6442       1.273E+19      3.362E+02
  39   1.940     0.6478       1.397E+19      3.183E+02
  40   1.940     0.6484       1.375E+19      3.108E+02
  41   1.940     0.6486       1.415E+19      3.387E+02
  42   1.940     0.6497       1.381E+19      3.038E+02
  43   1.940     0.6497       1.371E+19      2.873E+02
  44   1.940     0.6503       1.498E+19      3.763E+02
  45   1.940     0.6513       1.426E+19      2.756E+02
  46   1.940     0.6540       1.492E+19      3.147E+02
  47   1.940     0.6551       1.513E+19      2.923E+02
  48   1.940     0.6551       1.366E+19      3.058E+02
  49   1.940     0.6597       1.284E+19      2.366E+02
  50   1.940     0.6597       1.309E+19      3.113E+02
  51   1.940     0.6605       1.479E+19      2.944E+02
  52   1.940     0.6628       1.296E+19      3.118E+02
  53   1.940     0.6628       1.324E+19      2.766E+02
  54   1.940     0.6665       1.248E+19      2.666E+02
  55   1.940     0.6668       1.321E+19      2.914E+02
  56   1.940     0.6706       1.287E+19      3.336E+02
  57   1.940     0.6710       1.242E+19      2.782E+02
  58   1.940     0.6710       1.256E+19      2.703E+02
  59   1.940     0.6722       1.193E+19      3.099E+02
  60   1.940     0.6722       1.232E+19      3.144E+02
  61   1.940     0.6731       1.280E+19      3.125E+02
  62   1.940     0.6765       1.135E+19      3.130E+02
  63   1.940     0.6765       1.276E+19      2.420E+02
  64   1.940     0.6767       1.223E+19      2.627E+02
  65   1.940     0.6767       1.241E+19      2.483E+02
  66   1.940     0.6796       1.217E+19      2.589E+02
  67   1.940     0.6796       1.389E+19      2.711E+02
  68   1.940     0.6804       1.244E+19      3.126E+02
  69   1.940     0.6811       1.236E+19      2.910E+02
  70   1.940     0.6812       1.212E+19      3.167E+02
  71   1.940     0.6820       1.260E+19      2.648E+02
  72   1.940     0.6820       1.116E+19      3.154E+02
  73   1.940     0.6821       1.215E+19      2.712E+02
  74   1.940     0.6828       1.463E+19      2.877E+02
  75   1.940     0.6830       1.362E+19      2.292E+02
  76   1.940     0.6834       1.198E+19      2.755E+02
  77   1.940     0.6859       1.286E+19      3.309E+02
  78   1.940     0.6870       1.071E+19      3.364E+02
  79   1.940     0.6870       1.278E+19      2.868E+02
  80   1.940     0.6870       1.313E+19      2.905E+02
  81   1.940     0.6873       1.399E+19      2.662E+02
  82   1.940     0.6873       1.296E+19      2.403E+02
  83   1.940     0.6885       1.268E+19      2.206E+02
  84   1.940     0.6885       1.350E+19      2.967E+02
  85   1.940     0.6893       1.296E+19      2.756E+02
  86   1.940     0.6914       1.254E+19      3.089E+02
  87   1.940     0.6914       1.234E+19      2.998E+02
  88   1.940     0.6924       1.275E+19      3.119E+02
  89   1.940     0.6924       1.269E+19      2.568E+02
  90   1.940     0.6926       1.300E+19      2.646E+02
  91   1.940     0.6926       1.249E+19      2.679E+02
  92   1.940     0.6926       1.363E+19      2.622E+02
  93   1.940     0.6962       1.248E+19      2.601E+02
  94   1.940     0.6962       1.094E+19      2.623E+02
  95   1.940     0.6965       1.502E+19      3.160E+02
  96   1.940     0.6972       1.280E+19      2.385E+02
  97   1.940     0.6972       1.299E+19      2.210E+02
  98   1.940     0.6977       1.266E+19      2.423E+02
  99   1.940     0.6978       1.285E+19      1.933E+02
 100   1.940     0.6978       1.178E+19      2.495E+02
 101   1.940     0.6986       1.112E+19      2.195E+02
 102   1.940     0.6992       1.335E+19      2.459E+02
 103   1.940     0.6994       1.141E+19      2.310E+02
 104   1.940     0.7016       1.295E+19      2.334E+02
 105   1.940     0.7026       1.341E+19      2.826E+02
 106   1.940     0.7026       1.274E+19      2.647E+02
 107   1.940     0.7033       1.155E+19      2.159E+02
 108   1.940     0.7034       1.097E+19      2.907E+02
 109   1.940     0.7034       1.121E+19      2.628E+02
 110   1.940     0.7045       1.155E+19      3.113E+02
 111   1.940     0.7045       1.137E+19      2.605E+02
 112   1.940     0.7053       1.138E+19      2.196E+02
 113   1.940     0.7069       1.274E+19      2.370E+02
 114   1.940     0.7069       1.283E+19      2.400E+02
 115   1.940     0.7081       1.307E+19      2.465E+02
 116   1.940     0.7081       1.068E+19      2.422E+02
 117   1.940     0.7084       1.099E+19      2.435E+02
 118   1.940     0.7084       1.163E+19      2.488E+02
 119   1.940     0.7085       1.144E+19      1.987E+02
 120   1.940     0.7113       1.288E+19      2.293E+02
 121   1.940     0.7113       1.409E+19      2.331E+02
 122   1.940     0.7123       1.147E+19      2.769E+02
 123   1.940     0.7130       1.089E+19      3.042E+02
 124   1.940     0.7130       1.357E+19      2.761E+02
 125   1.940     0.7131       1.156E+19      2.378E+02
 126   1.940     0.7131       1.142E+19      2.469E+02
 127   1.940     0.7135       1.123E+19      2.255E+02
 128   1.940     0.7135       1.177E+19      2.351E+02
 129   1.940     0.7143       1.331E+19      2.623E+02
 130   1.940     0.7147       1.140E+19      2.531E+02
 131   1.940     0.7170       1.058E+19      2.001E+02
 132   1.940     0.7180       1.255E+19      3.394E+02
 133   1.940     0.7180       1.143E+19      2.253E+02
 134   1.940     0.7181       1.138E+19      2.491E+02
 135   1.940     0.7181       1.141E+19      2.315E+02
 136   1.940     0.7181       1.205E+19      2.566E+02
 137   1.940     0.7192       1.306E+19      2.955E+02
 138   1.940     0.7192       1.211E+19      2.562E+02
 139   1.940     0.7199       1.162E+19      2.638E+02
 140   1.940     0.7222       9.648E+18      2.608E+02
 141   1.940     0.7222       1.146E+19      2.730E+02
 142   1.940     0.7223       1.300E+19      2.307E+02
 143   1.940     0.7228       1.304E+19      2.401E+02
 144   1.940     0.7228       1.307E+19      2.362E+02
 145   1.940     0.7230       1.237E+19      2.273E+02
 146   1.940     0.7235       9.778E+18      2.142E+02
 147   1.940     0.7267       1.212E+19      2.008E+02
 148   1.940     0.7271       1.263E+19      1.990E+02
 149   1.940     0.7274       1.206E+19      2.202E+02
 150   1.940     0.7275       1.362E+19      2.449E+02
 151   1.940     0.7277       1.102E+19      2.842E+02
 152   1.940     0.7277       1.309E+19      2.602E+02
 153   1.940     0.7289       1.137E+19      2.532E+02
 154   1.940     0.7311       1.268E+19      2.232E+02
 155   1.940     0.7321       9.927E+18      1.983E+02
 156   1.940     0.7321       1.247E+19      2.663E+02
 157   1.940     0.7362       1.142E+19      2.138E+02
 158   1.940     0.7362       1.155E+19      2.679E+02
 159   1.940     0.7375       1.170E+19      2.731E+02
 160   1.940     0.7423       1.265E+19      1.887E+02
 161   1.940     0.7423       1.165E+19      2.225E+02
 162   1.940     0.7425       1.284E+19      2.059E+02
 163   1.940     0.7449       1.264E+19      1.628E+02
 164   1.940     0.7479       1.248E+19      1.800E+02
 165   1.940     0.7479       1.223E+19      2.282E+02
 166   1.940     0.7484       1.186E+19      2.463E+02
 167   1.940     0.7491       1.216E+19      2.040E+02
 168   1.940     0.7491       1.103E+19      2.462E+02
 169   1.940     0.7497       1.220E+19      2.377E+02
 170   1.940     0.7515       1.131E+19      1.651E+02
 171   1.940     0.7520       1.283E+19      2.529E+02
 172   1.940     0.7520       1.111E+19      2.468E+02
 173   1.940     0.7527       1.201E+19      2.271E+02
 174   1.940     0.7556       1.077E+19      1.782E+02
 175   1.940     0.7561       1.235E+19      3.091E+02
 176   1.940     0.7563       1.121E+19      1.668E+02
 177   1.940     0.7568       1.188E+19      2.128E+02
 178   1.940     0.7568       1.230E+19      2.496E+02
 179   1.940     0.7568       1.217E+19      1.698E+02
 180   1.940     0.7569       1.076E+19      1.500E+02
 181   1.940     0.7569       1.171E+19      2.124E+02
 182   1.940     0.7570       1.311E+19      1.922E+02
 183   1.940     0.7577       1.290E+19      1.751E+02
 184   1.940     0.7593       1.084E+19      2.142E+02
 185   1.940     0.7597       1.147E+19      1.950E+02
 186   1.940     0.7607       1.189E+19      2.253E+02
 187   1.940     0.7607       1.101E+19      2.232E+02
 188   1.940     0.7620       1.097E+19      1.575E+02
 189   1.940     0.7620       1.091E+19      1.782E+02
 190   1.940     0.7627       1.194E+19      1.703E+02
 191   1.940     0.7632       9.634E+18      1.774E+02
 192   1.940     0.7632       1.030E+19      1.891E+02
 193   1.940     0.7636       1.244E+19      2.016E+02
 194   1.940     0.7645       1.117E+19      1.595E+02
 195   1.940     0.7645       1.082E+19      1.787E+02
 196   1.940     0.7651       9.292E+18      1.576E+02
 197   1.940     0.7658       1.029E+19      2.089E+02
 198   1.940     0.7658       9.239E+18      1.575E+02
 199   1.940     0.7661       1.121E+19      2.203E+02
 200   1.940     0.7666       1.046E+19      1.651E+02
 201   1.940     0.7689       1.079E+19      2.075E+02
 202   1.940     0.7699       1.008E+19      1.362E+02
 203   1.940     0.7704       1.157E+19      2.474E+02
 204   1.940     0.7704       1.152E+19      1.901E+02
 205   1.940     0.7706       1.187E+19      2.329E+02
 206   1.940     0.7709       1.077E+19      1.693E+02
 207   1.940     0.7710       1.215E+19      2.197E+02
 208   1.940     0.7712       1.064E+19      1.581E+02
 209   1.940     0.7724       1.200E+19      1.492E+02
 210   1.940     0.7724       1.414E+19      1.520E+02
